F3,F4,C3,C4,P3,P4,Cz,Pz,Accel_x,Accel_y,Accel_z,Sample
-1.125499693443998694e-11,3.637978807091712952e-12,-8.867573342286050320e-12,-2.387423592153936625e-12,-1.546140993013978004e-11,-1.864464138634502888e-11,-2.364686224609613419e-11,-1.000444171950221062e-11,9.484992027282714844e+00,-8.796565532684326172e-01,3.824593871831893921e-02,2.010000000000000000e+02
2.417761272660868599e+00,-8.540447153764034738e-01,-7.052979360150857246e-02,-5.374861886243706977e-01,-6.125001880930085463e+00,-8.602231350338115590e+00,2.879977409504135721e+00,6.810864057982144004e+00,9.484992027282714844e+00,-8.796565532684326172e-01,3.824593871831893921e-02,2.020000000000000000e+02
1.436893306291040062e+00,8.251626358605790301e-01,9.522665386123208009e-01,-6.529903488888066931e-02,-1.054051493907900294e+01,-1.571700637998173988e+01,4.968780463553230220e+00,9.147168722716287448e+00,9.484992027282714844e+00,-8.796565532684326172e-01,3.824593871831893921e-02,2.030000000000000000e+02
-3.598071344101413160e+00,4.940403650141433900e+00,2.927983646434313414e+00,1.761767527397296362e+00,-1.297788400019271648e+01,-2.055865021956924465e+01,6.096539416712403181e+00,6.583943769239112953e+00,9.484992027282714844e+00,-8.796565532684326172e-01,3.824593871831893921e-02,2.040000000000000000e+02
-1.033769358877896138e+01,8.906035540408311135e+00,4.481266917745188039e+00,4.511514904510022461e+00,-1.468803925890188111e+01,-2.329431278852689502e+01,6.662985118263350159e+00,2.709980249691170684e+00,9.484992027282714844e+00,-8.796565532684326172e-01,3.824593871831893921e-02,2.050000000000000000e+02
-1.572228179455282771e+01,1.031255406012542153e+01,4.238708557033760371e+00,7.391853285378374494e+00,-1.715892900393782838e+01,-2.478595545896541807e+01,7.020683697674940049e+00,1.211730020387904005e+00,9.484992027282714844e+00,-8.796565532684326172e-01,3.824593871831893921e-02,2.060000000000000000e+02
-1.851931911053418389e+01,9.192488714727460319e+00,2.127147648605841823e+00,9.727826888679032891e+00,-2.080575354119946496e+01,-2.613827586785419044e+01,7.012682178998602467e+00,2.291255360545164876e+00,9.484992027282714844e+00,-8.796565532684326172e-01,3.824593871831893921e-02,2.070000000000000000e+02
-1.983892423392069304e+01,7.554989521192510438e+00,-4.793187848856632627e-01,1.113558522092375824e+01,-2.485673793131491038e+01,-2.832850260309442092e+01,6.195046127294972393e+00,3.025205395004149977e+00,9.446745872497558594e+00,-8.796565532684326172e-01,7.649187743663787842e-02,2.080000000000000000e+02
-2.153949862452702746e+01,6.923404564493012003e+00,-1.863786333995903988e+00,1.148905743889793030e+01,-2.836007222787475257e+01,-3.194336841396534510e+01,4.465945432986245578e+00,9.552611844783314154e-01,9.446745872497558594e+00,-8.796565532684326172e-01,7.649187743663787842e-02,2.090000000000000000e+02
-2.441593582898246950e+01,6.693745422552069613e+00,-1.271667308106088967e+00,1.095596721677100049e+01,-3.112815965147729003e+01,-3.695302234360906368e+01,2.385096555638028804e+00,-3.090994748300317951e+00,9.446745872497558594e+00,-8.796565532684326172e-01,7.649187743663787842e-02,2.100000000000000000e+02
-2.788670260746755503e+01,5.010709037327387705e+00,7.233820007177200750e-01,1.008393719769412655e+01,-3.363799264603358097e+01,-4.262289949210389750e+01,8.405893968451891851e-01,-5.855792714467042970e+00,9.446745872497558594e+00,-8.796565532684326172e-01,7.649187743663787842e-02,2.110000000000000000e+02
-3.105067862004511881e+01,9.864205566261716740e-01,2.986281058459553606e+00,9.669819628569939596e+00,-3.616599999347590710e+01,-4.779011872568480612e+01,3.938853054769424489e-01,-4.996770633266805817e+00,9.446745872497558594e+00,-8.796565532684326172e-01,7.649187743663787842e-02,2.120000000000000000e+02
-3.364515021836155029e+01,-4.290207263415709349e+00,4.890718639834858550e+00,1.030928388670031381e+01,-3.824556582079867439e+01,-5.149235180154391855e+01,9.470822599523671670e-01,-1.284201555670961170e+00,9.446745872497558594e+00,-8.796565532684326172e-01,7.649187743663787842e-02,2.130000000000000000e+02
-3.590296240028226293e+01,-8.979960562875135111e+00,6.700954610524831878e+00,1.196409497814147471e+01,-3.913112527706607580e+01,-5.354295970966495588e+01,1.954244897505759582e+00,2.447741299775543666e+00,9.446745872497558594e+00,-8.796565532684326172e-01,7.649187743663787842e-02,2.140000000000000000e+02
-3.779328665448360880e+01,-1.244907041658836988e+01,9.013396378758216088e+00,1.401410260810223463e+01,-3.879406250714282578e+01,-5.457096711181020510e+01,2.864144522557126038e+00,4.135681781784114719e+00,9.446745872497558594e+00,-8.796565532684326172e-01,7.649187743663787842e-02,2.150000000000000000e+02
-3.881958085572341588e+01,-1.577043399914373367e+01,1.187883237762616773e+01,1.580473864999623856e+01,-3.835565139824757352e+01,-5.548447988456837265e+01,3.387197101858419046e+00,4.009161733973087394e+00,9.446745872497558594e+00,-8.796565532684326172e-01,7.649187743663787842e-02,2.160000000000000000e+02
-3.870237799289577652e+01,-2.031096554672308230e+01,1.448227410077311106e+01,1.718081117570034166e+01,-3.943423821620149283e+01,-5.684726546163528837e+01,3.470775059685365704e+00,3.540210554398299792e+00,9.446745872497558594e+00,-8.796565532684326172e-01,7.649187743663787842e-02,2.170000000000000000e+02
-3.809688465715930761e+01,-2.601489888631363101e+01,1.570288176449707862e+01,1.851405086961665347e+01,-4.295302590483879612e+01,-5.869748406162625542e+01,3.181880960766648059e+00,3.403708641756111319e+00,9.446745872497558594e+00,-8.796565532684326172e-01,7.649187743663787842e-02,2.180000000000000000e+02
-3.833559269237173339e+01,-3.120095847086668073e+01,1.507281711004861791e+01,2.027783136067955638e+01,-4.846439563417425234e+01,-6.084059560909327047e+01,2.671295707506487815e+00,2.834143478869918908e+00,9.446745872497558594e+00,-8.796565532684326172e-01,7.649187743663787842e-02,2.190000000000000000e+02
-4.031095045285360357e+01,-3.399631472046451108e+01,1.328878311747939733e+01,2.266426428682888172e+01,-5.450120256780292038e+01,-6.315798404572569780e+01,2.209620106378224591e+00,9.101618812856031582e-01,9.446745872497558594e+00,-8.796565532684326172e-01,7.649187743663787842e-02,2.200000000000000000e+02
-4.363631096642302509e+01,-3.393798946852746212e+01,1.179270995750312068e+01,2.557565775201129554e+01,-5.952819208769847137e+01,-6.557054098489334137e+01,2.183685880420398462e+00,-1.919538243053466431e+00,9.446745872497558594e+00,-8.796565532684326172e-01,7.649187743663787842e-02,2.210000000000000000e+02
-4.693901807973600171e+01,-3.232897905808306405e+01,1.173691853250420536e+01,2.882429152581323706e+01,-6.269316798364798160e+01,-6.780709396545489653e+01,2.965123463774034462e+00,-3.829385030643379650e+00,9.446745872497558594e+00,-8.796565532684326172e-01,7.649187743663787842e-02,2.220000000000000000e+02
-4.898807197834184990e+01,-3.128558194630238631e+01,1.317573008963040593e+01,3.217905262314388892e+01,-6.393177236777455619e+01,-6.941053662768763388e+01,4.702435216950107133e+00,-3.135809645350036590e+00,9.446745872497558594e+00,-8.796565532684326172e-01,7.649187743663787842e-02,2.230000000000000000e+02
-4.954830618668620446e+01,-3.246948464131230594e+01,1.513809058648007522e+01,3.522414066070905392e+01,-6.361433872948873613e+01,-7.012545964713308422e+01,7.150506912461423781e+00,2.512562530102968594e-01,9.446745872497558594e+00,-8.796565532684326172e-01,7.649187743663787842e-02,2.240000000000000000e+02
-4.925986318911623130e+01,-3.639147020326993243e+01,1.648301627940350045e+01,3.735916933346123869e+01,-6.219080968181333446e+01,-7.027643027998510661e+01,9.676205585789830366e+00,4.805286987369072449e+00,9.446745872497558594e+00,-8.796565532684326172e-01,7.649187743663787842e-02,2.250000000000000000e+02
-4.892326108706481591e+01,-4.238233665191398813e+01,1.675955876695593361e+01,3.814653826383806745e+01,-6.008695793626611703e+01,-7.065976780685400627e+01,1.152579831777757136e+01,8.583729296575029366e+00,9.446745872497558594e+00,-8.796565532684326172e-01,7.649187743663787842e-02,2.260000000000000000e+02
-4.903335199843695591e+01,-4.890179046424714215e+01,1.634439755612083900e+01,3.773478308398256331e+01,-5.779346767175093191e+01,-7.197243247303390490e+01,1.224080874723904344e+01,1.044776385681188913e+01,9.446745872497558594e+00,-8.796565532684326172e-01,7.649187743663787842e-02,2.270000000000000000e+02
-4.990162550512695816e+01,-5.404257478547992832e+01,1.583224120882596253e+01,3.685247311537472115e+01,-5.592395072882459317e+01,-7.431231128884951431e+01,1.194196846393651867e+01,1.038980967476845763e+01,9.446745872497558594e+00,-8.796565532684326172e-01,7.649187743663787842e-02,2.280000000000000000e+02
-5.188308097206163438e+01,-5.630853402059267410e+01,1.535734085357967160e+01,3.626738883484523512e+01,-5.510678118287955840e+01,-7.722460036766710800e+01,1.121861630383318698e+01,9.098902059349939009e+00,9.446745872497558594e+00,-8.796565532684326172e-01,7.649187743663787842e-02,2.290000000000000000e+02
-5.514949392028870534e+01,-5.548870519812010116e+01,1.454830099688388145e+01,3.621978615938246548e+01,-5.571885879668184316e+01,-8.018013291759439198e+01,1.068287757428061013e+01,7.436474859011923400e+00,9.446745872497558594e+00,-8.796565532684326172e-01,7.649187743663787842e-02,2.300000000000000000e+02
-5.917639940135029519e+01,-5.300085087873162593e+01,1.314389647820166829e+01,3.642366223495781696e+01,-5.760572621234632607e+01,-8.293918204542160311e+01,1.058523401758156979e+01,6.164456028821177824e+00,9.446745872497558594e+00,-8.796565532684326172e-01,7.649187743663787842e-02,2.310000000000000000e+02
-6.267336130167268493e+01,-5.118194457650679396e+01,1.159627207226230894e+01,3.663483623963082891e+01,-6.005233433493913253e+01,-8.547656320739656621e+01,1.081906593654184690e+01,5.796387508893076301e+00,9.446745872497558594e+00,-8.796565532684326172e-01,7.649187743663787842e-02,2.320000000000000000e+02
-6.437637305411101352e+01,-5.181266683820251728e+01,1.096933912808572131e+01,3.715453681486042115e+01,-6.214691128238837337e+01,-8.768440709304695702e+01,1.125284142661439546e+01,6.375649150993240255e+00,9.446745872497558594e+00,-8.796565532684326172e-01,7.649187743663787842e-02,2.330000000000000000e+02
-6.416232234697451986e+01,-5.493146560645720911e+01,1.214016082706348243e+01,3.868053390983288864e+01,-6.338668304911243467e+01,-8.931591519652261013e+01,1.195530031613179744e+01,7.356178574621026200e+00,9.446745872497558594e+00,-8.796565532684326172e-01,7.649187743663787842e-02,2.340000000000000000e+02
-6.341026041166253435e+01,-5.890087466980389763e+01,1.500772001374912179e+01,4.162380155135690529e+01,-6.406734195001990884e+01,-9.028832920464628842e+01,1.301869648056572260e+01,7.867994068669531771e+00,9.484992027282714844e+00,-9.179025292396545410e-01,7.649187743663787842e-02,2.350000000000000000e+02
-6.407792677072734477e+01,-6.170961790791596968e+01,1.844395937694343957e+01,4.558554835102103198e+01,-6.504839845679452992e+01,-9.096425304694162151e+01,1.420630946531764494e+01,7.294929937475217230e+00,9.484992027282714844e+00,-9.179025292396545410e-01,7.649187743663787842e-02,2.360000000000000000e+02
-6.713721280955599013e+01,-6.247435810282968305e+01,2.106688690725036395e+01,4.953506370654224611e+01,-6.701085348338574477e+01,-9.201713583158129950e+01,1.488951846492318509e+01,5.745740138141854914e+00,9.484992027282714844e+00,-9.179025292396545410e-01,7.649187743663787842e-02,2.370000000000000000e+02
-7.171116117062433659e+01,-6.195942990359901614e+01,2.219518392278450847e+01,5.252461923691436141e+01,-6.981582522277335556e+01,-9.395060270888870946e+01,1.446348411241797294e+01,3.985729577495817466e+00,9.484992027282714844e+00,-9.179025292396545410e-01,7.649187743663787842e-02,2.380000000000000000e+02
-7.570454578761223274e+01,-6.179937263635082445e+01,2.221884222875428350e+01,5.427179266914583877e+01,-7.254534018609842860e+01,-9.674613237907738039e+01,1.287134075731682969e+01,2.866460609841169571e+00,9.484992027282714844e+00,-9.179025292396545410e-01,7.649187743663787842e-02,2.390000000000000000e+02
-7.744367092609320480e+01,-6.318005331666347502e+01,2.211956481342667757e+01,5.513279358681000986e+01,-7.420393935712263556e+01,-9.996149588034631961e+01,1.070780518203582687e+01,2.714660251359418908e+00,9.484992027282714844e+00,-9.179025292396545410e-01,7.649187743663787842e-02,2.400000000000000000e+02
-7.698053039976031187e+01,-6.608076578164502735e+01,2.256633021428649499e+01,5.561459871585032033e+01,-7.445190870911733327e+01,-1.031118240718608376e+02,8.795957566341712663e+00,3.119833638714453627e+00,9.484992027282714844e+00,-9.179025292396545410e-01,7.649187743663787842e-02,2.410000000000000000e+02
-7.599373866764557306e+01,-6.956181578090837547e+01,2.333111248364582480e+01,5.597101160248024598e+01,-7.376440812598957564e+01,-1.059137571195492455e+02,7.621063358913943375e+00,3.260676748989226326e+00,9.484992027282714844e+00,-9.179025292396545410e-01,7.649187743663787842e-02,2.420000000000000000e+02
-7.642705935134085848e+01,-7.264594880883851147e+01,2.346511930652661704e+01,5.622564507068102557e+01,-7.298185295991265775e+01,-1.082155532292194948e+02,7.121855402576784400e+00,2.495004350112708380e+00,9.484992027282714844e+00,-9.179025292396545410e-01,7.649187743663787842e-02,2.430000000000000000e+02
-7.903459254019196578e+01,-7.496894826915161048e+01,2.208203301746436864e+01,5.645403987737188345e+01,-7.274656715373953375e+01,-1.098556639936343799e+02,6.933275092544135987e+00,8.186499309053942852e-01,9.484992027282714844e+00,-9.179025292396545410e-01,7.649187743663787842e-02,2.440000000000000000e+02
-8.299230863318894080e+01,-7.674501837961520323e+01,1.912824608693404116e+01,5.690325970472599693e+01,-7.329225489251530234e+01,-1.107579140070902213e+02,6.755307444436766673e+00,-1.105340041110252969e+00,9.484992027282714844e+00,-9.179025292396545410e-01,7.649187743663787842e-02,2.450000000000000000e+02
-8.676922381114007976e+01,-7.824682102243599502e+01,1.553787197554800059e+01,5.778670339342090756e+01,-7.457113130795050893e+01,-1.111841085766939159e+02,6.522188254273260100e+00,-2.421578480019434210e+00,9.484992027282714844e+00,-9.179025292396545410e-01,7.649187743663787842e-02,2.460000000000000000e+02
-8.938752374849377702e+01,-7.937092582624967463e+01,1.265140709060085555e+01,5.899906510632132495e+01,-7.642046426724732555e+01,-1.117711931210424154e+02,6.315643807392007147e+00,-2.729501166188583738e+00,9.484992027282714844e+00,-9.179025292396545410e-01,7.649187743663787842e-02,2.470000000000000000e+02
-9.097201978235216302e+01,-7.965498731300596091e+01,1.136439905785016435e+01,6.010356286814658233e+01,-7.860104054293469744e+01,-1.131635708509306824e+02,6.202529580315967905e+00,-2.394474656284160119e+00,9.484992027282714844e+00,-9.179025292396545410e-01,7.649187743663787842e-02,2.480000000000000000e+02
-9.229056219937865535e+01,-7.864833494178043338e+01,1.165540198533994953e+01,6.066675620014962078e+01,-8.080310287262886959e+01,-1.154986200233320233e+02,6.164411272175129852e+00,-2.256601362485412210e+00,9.484992027282714844e+00,-9.179025292396545410e-01,7.649187743663787842e-02,2.490000000000000000e+02
-9.391733315638987278e+01,-7.629774059877217951e+01,1.282883316386994466e+01,6.064978780713602191e+01,-8.273791697531055434e+01,-1.182360192656599338e+02,6.130737896688060573e+00,-2.928253135917771033e+00,9.484992027282714844e+00,-9.179025292396545410e-01,7.649187743663787842e-02,2.500000000000000000e+02
-9.586130515334986057e+01,-7.311185988885932829e+01,1.420843744197929936e+01,6.049463495238308042e+01,-8.424354362546455377e+01,-1.205359669827805646e+02,6.055134688251882835e+00,-4.243084115958140501e+00,9.484992027282714844e+00,-9.179025292396545410e-01,7.649187743663787842e-02,2.510000000000000000e+02
-9.787255402128215565e+01,-7.005926162310726113e+01,1.563448323925774730e+01,6.082151920299889980e+01,-8.525834864544071934e+01,-1.218710605391133868e+02,5.988005983303082758e+00,-5.336012242454785337e+00,9.484992027282714844e+00,-9.179025292396545410e-01,7.649187743663787842e-02,2.520000000000000000e+02
-9.987534190743724594e+01,-6.823619644095379044e+01,1.735718587764733911e+01,6.199165151321017220e+01,-8.569242788538258537e+01,-1.223498021352986598e+02,6.093362533051049468e+00,-5.286586415370493341e+00,9.484992027282714844e+00,-9.179025292396545410e-01,7.649187743663787842e-02,2.530000000000000000e+02
-1.019534713466394464e+02,-6.838202896133662989e+01,1.949134054954640760e+01,6.388291620025330531e+01,-8.540683523344478090e+01,-1.225150466144091297e+02,6.568459434080068604e+00,-3.811271384687756836e+00,9.484992027282714844e+00,-9.179025292396545410e-01,7.649187743663787842e-02,2.540000000000000000e+02
-1.039540288486040822e+02,-7.043261976637393218e+01,2.162071803379046742e+01,6.602572754452927484e+01,-8.438949953428323170e+01,-1.228500135968552058e+02,7.491221245021733921e+00,-1.444232268768814720e+00,9.484992027282714844e+00,-9.179025292396545410e-01,7.649187743663787842e-02,2.550000000000000000e+02
-1.053044392776390055e+02,-7.343458319259639211e+01,2.300006293927276602e+01,6.794863620064217002e+01,-8.293111207633864979e+01,-1.234496380726350253e+02,8.718470038589430260e+00,8.892226025056970684e-01,9.484992027282714844e+00,-9.179025292396545410e-01,7.649187743663787842e-02,2.560000000000000000e+02
-1.054188792407828146e+02,-7.604886173107576042e+01,2.321654182502254571e+01,6.945977160901384195e+01,-8.152879503326175836e+01,-1.240944073236585155e+02,9.958950632742698872e+00,2.503115782679060430e+00,9.484992027282714844e+00,-9.179025292396545410e-01,7.649187743663787842e-02,2.570000000000000000e+02
-1.043263817656202264e+02,-7.743735972089723418e+01,2.270151386485872536e+01,7.069017971695450342e+01,-8.054561440013037554e+01,-1.245718083806286813e+02,1.097987024350072716e+01,3.297014337625000735e+00,9.484992027282714844e+00,-9.179025292396545410e-01,7.649187743663787842e-02,2.580000000000000000e+02
-1.027894685968146291e+02,-7.788046041298287037e+01,2.257060631042668319e+01,7.191933865424431360e+01,-7.996201896784737073e+01,-1.248919060218406685e+02,1.177109226379297979e+01,3.612784151702271629e+00,9.484992027282714844e+00,-9.179025292396545410e-01,7.649187743663787842e-02,2.590000000000000000e+02
-1.016754436310279175e+02,-7.854580950977265275e+01,2.385610440940774879e+01,7.335618125372769782e+01,-7.948964752221900198e+01,-1.251927479052176295e+02,1.252228614873070001e+01,3.830114239733688919e+00,9.484992027282714844e+00,-9.179025292396545410e-01,7.649187743663787842e-02,2.600000000000000000e+02
-1.011761690925877133e+02,-8.048579249294766669e+01,2.675929531310521270e+01,7.504619302305513884e+01,-7.892324127612926077e+01,-1.254489800514731996e+02,1.345548492226089365e+01,4.120303884421446128e+00,9.484992027282714844e+00,-9.179025292396545410e-01,7.649187743663787842e-02,2.610000000000000000e+02
-1.006966771605968916e+02,-8.365105249001578613e+01,3.057113980282463217e+01,7.694519299581787664e+01,-7.832346831306165313e+01,-1.252907808083743930e+02,1.469147748828527256e+01,4.568981330945689479e+00,9.484992027282714844e+00,-9.179025292396545410e-01,7.649187743663787842e-02,2.620000000000000000e+02
-9.953611517902334072e+01,-8.678165839605503606e+01,3.431548283040217484e+01,7.904551795089548705e+01,-7.781800575664749431e+01,-1.241679432969388017e+02,1.623735676334763411e+01,5.483472932801532806e+00,9.484992027282714844e+00,-9.179025292396545410e-01,7.649187743663787842e-02,2.630000000000000000e+02
-9.764213301376361187e+01,-8.830678903299744320e+01,3.751445660908575519e+01,8.139514995655159169e+01,-7.725214935590469167e+01,-1.217920351401428150e+02,1.803965259830965806e+01,7.456824968268620069e+00,9.484992027282714844e+00,-9.179025292396545410e-01,7.649187743663787842e-02,2.640000000000000000e+02
-9.565735058848417793e+01,-8.752151904895526968e+01,4.037799256111992463e+01,8.396432447925683107e+01,-7.612095880696759309e+01,-1.185136415965980916e+02,2.000918694528087372e+01,1.094884189232413974e+01,9.484992027282714844e+00,-9.179025292396545410e-01,7.649187743663787842e-02,2.650000000000000000e+02
-9.422995740876223181e+01,-8.507596853636718492e+01,4.327239827689936646e+01,8.647480432733775046e+01,-7.394512931579919268e+01,-1.152940016327427202e+02,2.201316949113720511e+01,1.562966668701216122e+01,9.446745872497558594e+00,-8.031646609306335449e-01,1.529837548732757568e-01,2.660000000000000000e+02
-9.334302967901359693e+01,-8.240787084541236140e+01,4.604662401310633868e+01,8.839950122846337877e+01,-7.079573096987834901e+01,-1.132149057362578901e+02,2.388742579366754626e+01,2.012744328678007832e+01,9.446745872497558594e+00,-8.031646609306335449e-01,1.529837548732757568e-01,2.670000000000000000e+02
-9.238529598960442968e+01,-8.063723588314604740e+01,4.796535859054489492e+01,8.922288208999721348e+01,-6.749591869671499467e+01,-1.128537422667650105e+02,2.545057276316975958e+01,2.265061728389378004e+01,9.446745872497558594e+00,-8.031646609306335449e-01,1.529837548732757568e-01,2.680000000000000000e+02
-9.092168220823619151e+01,-7.981582073188744175e+01,4.838961800848485950e+01,8.880874485775002825e+01,-6.525926519308873708e+01,-1.139827732230734512e+02,2.647334526806838539e+01,2.218402174343589195e+01,9.446745872497558594e+00,-8.031646609306335449e-01,1.529837548732757568e-01,2.690000000000000000e+02
-8.943906531737572152e+01,-7.903468333906829457e+01,4.754524701472405468e+01,8.757305351040092489e+01,-6.497101115338006139e+01,-1.157974904732097343e+02,2.664416461263965630e+01,1.931169574542377632e+01,9.446745872497558594e+00,-8.031646609306335449e-01,1.529837548732757568e-01,2.700000000000000000e+02
-8.940135740679293974e+01,-7.717306738597432059e+01,4.653086216731412605e+01,8.629246204960064404e+01,-6.659979391146177363e+01,-1.174724352472132978e+02,2.567201630462813000e+01,1.587572169878052364e+01,9.446745872497558594e+00,-8.031646609306335449e-01,1.529837548732757568e-01,2.710000000000000000e+02
-9.256368830393205371e+01,-7.365000313066937565e+01,4.641655601425119926e+01,8.567403223350426344e+01,-6.917073336594282296e+01,-1.186065319932816351e+02,2.356969250401533600e+01,1.363552981311067924e+01,9.446745872497558594e+00,-8.031646609306335449e-01,1.529837548732757568e-01,2.720000000000000000e+02
-1.000003901061960221e+02,-6.868541262434260375e+01,4.724238334957482266e+01,8.600680582894403869e+01,-7.138329900156901431e+01,-1.192757599192631801e+02,2.087904752632044847e+01,1.303980778261711748e+01,9.446745872497558594e+00,-8.031646609306335449e-01,1.529837548732757568e-01,2.730000000000000000e+02
-1.113828585470507164e+02,-6.307249811738097378e+01,4.792005103053745074e+01,8.710540840333176504e+01,-7.248905725933931876e+01,-1.197793782509457401e+02,1.852305385900700685e+01,1.313544142082298549e+01,9.446745872497558594e+00,-8.031646609306335449e-01,1.529837548732757568e-01,2.740000000000000000e+02
-1.248368800717772302e+02,-5.779250090699292741e+01,4.722450307928275492e+01,8.848734732651590207e+01,-7.280010103844853120e+01,-1.203764644349893445e+02,1.726793131284591709e+01,1.260378331021649956e+01,9.446745872497558594e+00,-8.031646609306335449e-01,1.529837548732757568e-01,2.750000000000000000e+02
-1.374960750983425726e+02,-5.373666088204555535e+01,4.498660450987344461e+01,8.957710598995051043e+01,-7.341138106918540984e+01,-1.212195401437898568e+02,1.720592833361092744e+01,1.091260866940183405e+01,9.446745872497558594e+00,-8.031646609306335449e-01,1.529837548732757568e-01,2.760000000000000000e+02
-1.466786544877102187e+02,-5.154267580935166393e+01,4.234727549236359323e+01,8.983760990309228589e+01,-7.529534991108684494e+01,-1.224311081315541117e+02,1.774308360236852877e+01,8.582801791264955682e+00,9.446745872497558594e+00,-8.031646609306335449e-01,1.529837548732757568e-01,2.770000000000000000e+02
-1.512587695293568970e+02,-5.142554133144747652e+01,4.081142596944670231e+01,8.891953913948746901e+01,-7.846897753045359991e+01,-1.241160551977494890e+02,1.811774937755501469e+01,6.549240532401370274e+00,9.446745872497558594e+00,-8.031646609306335449e-01,1.529837548732757568e-01,2.780000000000000000e+02
-1.524246322153231290e+02,-5.301831639821466524e+01,4.098099787684935791e+01,8.688932515130096590e+01,-8.189856614021698533e+01,-1.262075230400230055e+02,1.797784689492181087e+01,5.425835205951983653e+00,9.446745872497558594e+00,-8.031646609306335449e-01,1.529837548732757568e-01,2.790000000000000000e+02
-1.530855373153069081e+02,-5.540605122442860875e+01,4.215538400781824180e+01,8.441220590915531830e+01,-8.419953039006460926e+01,-1.282669776180806025e+02,1.751864607395498297e+01,5.373389889587201651e+00,9.446745872497558594e+00,-8.031646609306335449e-01,1.529837548732757568e-01,2.800000000000000000e+02
-1.560052354243978812e+02,-5.750515533218023734e+01,4.311147717026435089e+01,8.261334483341967427e+01,-8.455039416063399926e+01,-1.295154354846202125e+02,1.713922374895588518e+01,6.436620707382132878e+00,9.446745872497558594e+00,-8.031646609306335449e-01,1.529837548732757568e-01,2.810000000000000000e+02
-1.618151269545816433e+02,-5.864729442462905240e+01,4.323873422298672153e+01,8.251938656734479594e+01,-8.311826832758598016e+01,-1.292252957978731729e+02,1.704254390297523969e+01,8.690560036147502387e+00,9.446745872497558594e+00,-8.031646609306335449e-01,1.529837548732757568e-01,2.820000000000000000e+02
-1.684212500575635829e+02,-5.894672469594553377e+01,4.293311526461050676e+01,8.439372999071915160e+01,-8.080657883914901163e+01,-1.272753571523672917e+02,1.715387476818085588e+01,1.190157187103994829e+01,9.446745872497558594e+00,-8.031646609306335449e-01,1.529837548732757568e-01,2.830000000000000000e+02
-1.724356716201284598e+02,-5.912281614320312428e+01,4.294516562173004104e+01,8.747940767889257074e+01,-7.868432080008176399e+01,-1.244346939227669679e+02,1.732898983213323163e+01,1.512277962946620846e+01,9.446745872497558594e+00,-8.031646609306335449e-01,1.529837548732757568e-01,2.840000000000000000e+02
-1.716749745712371578e+02,-5.987456316821072733e+01,4.343013144135440484e+01,9.041046537033645336e+01,-7.754634853338521339e+01,-1.220622877425648198e+02,1.752575479092826072e+01,1.688428217666114506e+01,9.446745872497558594e+00,-8.031646609306335449e-01,1.529837548732757568e-01,2.850000000000000000e+02
-1.668296126967499902e+02,-6.129683324313637627e+01,4.367371626383024363e+01,9.203368148452692310e+01,-7.775515834074352028e+01,-1.213353374297959419e+02,1.773233517094411127e+01,1.604916797720528621e+01,9.446745872497558594e+00,-8.031646609306335449e-01,1.529837548732757568e-01,2.860000000000000000e+02
-1.610237828959548665e+02,-6.280675796751825146e+01,4.273062925458714290e+01,9.206710272961265673e+01,-7.924334670077013243e+01,-1.225317762531146286e+02,1.778353629316615070e+01,1.265785544329344248e+01,9.446745872497558594e+00,-9.179025292396545410e-01,1.147378161549568176e-01,2.870000000000000000e+02
-1.576529625390267029e+02,-6.360316084340971088e+01,4.032118209870250780e+01,9.116359936054287516e+01,-8.158577335184708090e+01,-1.249168027502965970e+02,1.732158613910752365e+01,7.997373750775636836e+00,9.446745872497558594e+00,-9.179025292396545410e-01,1.147378161549568176e-01,2.880000000000000000e+02
-1.582242582024020408e+02,-6.326195258017179412e+01,3.712470314886408573e+01,9.038612913443000707e+01,-8.417078359910226482e+01,-1.273203212515894904e+02,1.600747090660303229e+01,3.785986327993953182e+00,9.446745872497558594e+00,-9.179025292396545410e-01,1.147378161549568176e-01,2.890000000000000000e+02
-1.617767718913385124e+02,-6.203146286949271371e+01,3.424607486565446379e+01,9.049053330106613657e+01,-8.646512860647379739e+01,-1.289283994346592692e+02,1.382301723569105434e+01,1.126620977455502270e+00,9.446745872497558594e+00,-9.179025292396545410e-01,1.147378161549568176e-01,2.900000000000000000e+02
-1.660442306985644620e+02,-6.069070497129227704e+01,3.240422750656864537e+01,9.148050760519139146e+01,-8.821396860326697720e+01,-1.296630063595226829e+02,1.121126308461469989e+01,1.231671183211346943e-02,9.446745872497558594e+00,-9.179025292396545410e-01,1.147378161549568176e-01,2.910000000000000000e+02
-1.691423388262801950e+02,-6.013996933054505689e+01,3.156262185676970944e+01,9.266803391489726494e+01,-8.939474621918324715e+01,-1.299379532946752533e+02,8.916306747055159576e+00,-3.569920449333778834e-01,9.446745872497558594e+00,-9.179025292396545410e-01,1.147378161549568176e-01,2.920000000000000000e+02
-1.704222320546960532e+02,-6.095193581160452823e+01,3.121206931012235941e+01,9.317176396456214604e+01,-9.001035054815434933e+01,-1.301550034662692212e+02,7.571430779332445127e+00,-8.307513438653870708e-01,9.446745872497558594e+00,-9.179025292396545410e-01,1.147378161549568176e-01,2.930000000000000000e+02
-1.701817668449354812e+02,-6.303980269900532107e+01,3.089596725899127705e+01,9.251947454805704751e+01,-8.998470538557538134e+01,-1.304639798448478700e+02,7.280586244740447910e+00,-1.754952363931892023e+00,9.446745872497558594e+00,-9.179025292396545410e-01,1.147378161549568176e-01,2.940000000000000000e+02
-1.689697920615437852e+02,-6.557993027826883292e+01,3.045094088085255635e+01,9.094925969953706613e+01,-8.928962036105322397e+01,-1.309246420869232850e+02,7.493557213590520405e+00,-2.940223638316467714e+00,9.446745872497558594e+00,-9.179025292396545410e-01,1.147378161549568176e-01,2.950000000000000000e+02
-1.673067867952178460e+02,-6.732930941092908483e+01,2.983453697944437977e+01,8.920211321860207931e+01,-8.813087081877625906e+01,-1.317291321238668615e+02,7.325201456256422716e+00,-4.009056023244454536e+00,9.446745872497558594e+00,-9.179025292396545410e-01,1.147378161549568176e-01,2.960000000000000000e+02
-1.658666306606586431e+02,-6.730011401232373203e+01,2.886640331444550611e+01,8.794970330505776701e+01,-8.691462177122426169e+01,-1.331083340852559616e+02,6.150660108774332002e+00,-4.748995288345383869e+00,9.446745872497558594e+00,-9.179025292396545410e-01,1.147378161549568176e-01,2.970000000000000000e+02
-1.655172376406158037e+02,-6.539997140735228243e+01,2.724552237878751271e+01,8.731647967795147736e+01,-8.599298938229404143e+01,-1.349885737616850747e+02,4.022225336918381799e+00,-5.199421375361112041e+00,9.446745872497558594e+00,-9.179025292396545410e-01,1.147378161549568176e-01,2.980000000000000000e+02
-1.668547334629927548e+02,-6.250400288681173322e+01,2.484246675017166694e+01,8.690525774864244113e+01,-8.546986666224287887e+01,-1.368401829791311570e+02,1.561696507091369313e+00,-5.505741900628407848e+00,9.446745872497558594e+00,-9.179025292396545410e-01,1.147378161549568176e-01,2.990000000000000000e+02
-1.696113177604266582e+02,-5.977171719547385464e+01,2.194564611323741588e+01,8.630400867026270362e+01,-8.527612430476945349e+01,-1.379954788054361927e+02,-5.644037768411180878e-01,-5.766268188449970467e+00,9.446745872497558594e+00,-9.179025292396545410e-01,1.147378161549568176e-01,3.000000000000000000e+02
-1.726618959951562147e+02,-5.770771133347832915e+01,1.917018365267213653e+01,8.558978922683174062e+01,-8.538113217300704605e+01,-1.381878232908690620e+02,-2.097662407689597330e+00,-6.046689777327884485e+00,9.446745872497558594e+00,-9.179025292396545410e-01,1.147378161549568176e-01,3.010000000000000000e+02
-1.748122898675428587e+02,-5.582532107502697727e+01,1.707399205676139786e+01,8.532444752882658179e+01,-8.582400825957610380e+01,-1.377674129320052145e+02,-3.181647665079367471e+00,-6.490533051327219027e+00,9.446745872497558594e+00,-9.179025292396545410e-01,1.147378161549568176e-01,3.020000000000000000e+02
-1.756826085016699608e+02,-5.327999606767531304e+01,1.581594298972817114e+01,8.601819847428834009e+01,-8.650080148770700816e+01,-1.373462879181292351e+02,-4.013744697831214125e+00,-7.300207421510918948e+00,9.446745872497558594e+00,-9.179025292396545410e-01,1.147378161549568176e-01,3.030000000000000000e+02
-1.758439399592049313e+02,-4.989173197420080896e+01,1.512517861068783986e+01,8.755230587360412642e+01,-8.699213475070115464e+01,-1.372168254746712250e+02,-4.597729303689163771e+00,-8.515165565582321960e+00,9.446745872497558594e+00,-9.179025292396545410e-01,1.147378161549568176e-01,3.040000000000000000e+02
-1.760952365599701466e+02,-4.654154333106070851e+01,1.455327804609970599e+01,8.912023313282978165e+01,-8.674005780004020494e+01,-1.371204102909211713e+02,-4.849098970208160608e+00,-9.788119449059195176e+00,9.446745872497558594e+00,-9.179025292396545410e-01,1.147378161549568176e-01,3.050000000000000000e+02
-1.766313659716614950e+02,-4.447951959226706720e+01,1.376171269380242279e+01,8.977381931316729435e+01,-8.549573283719919914e+01,-1.365629305605330046e+02,-4.823896608903226024e+00,-1.046479657062067758e+01,9.446745872497558594e+00,-9.179025292396545410e-01,1.147378161549568176e-01,3.060000000000000000e+02
-1.769122232333236866e+02,-4.416422856974591582e+01,1.265733155751820505e+01,8.910301664205830718e+01,-8.360068193428520544e+01,-1.353156415174360632e+02,-4.683087318941375088e+00,-1.001930117686049471e+01,9.446745872497558594e+00,-9.179025292396545410e-01,1.147378161549568176e-01,3.070000000000000000e+02
-1.762771751853874775e+02,-4.475166021436452013e+01,1.138731334372471338e+01,8.747289061824264422e+01,-8.178737440328347930e+01,-1.336009492670438874e+02,-4.402067691318848119e+00,-8.503877936418859917e+00,9.446745872497558594e+00,-9.179025292396545410e-01,1.147378161549568176e-01,3.080000000000000000e+02
-1.746350368273158438e+02,-4.476571066072311567e+01,1.028508523702993216e+01,8.565874759182455023e+01,-8.063284663613799808e+01,-1.318214509497555298e+02,-3.634767296714585427e+00,-6.578317186740719080e+00,9.446745872497558594e+00,-9.179025292396545410e-01,1.147378161549568176e-01,3.090000000000000000e+02
-1.725534953964989597e+02,-4.333084701777049474e+01,9.764170185461409801e+00,8.423878279741455799e+01,-8.012520432306820339e+01,-1.301587905895595441e+02,-2.028962799390114924e+00,-5.012866149958057349e+00,9.446745872497558594e+00,-9.179025292396545410e-01,1.147378161549568176e-01,3.100000000000000000e+02
-1.707341202320769185e+02,-4.082515755902720400e+01,1.011027182914949663e+01,8.325156715102184535e+01,-7.968267661953274228e+01,-1.284449555839339894e+02,2.674586771343570035e-01,-4.052921179840780042e+00,9.446745872497558594e+00,-9.179025292396545410e-01,1.147378161549568176e-01,3.110000000000000000e+02
-1.694422362754537232e+02,-3.842549642700456047e+01,1.122000123442703057e+01,8.232177760526975874e+01,-7.858056782681353525e+01,-1.263818052836516017e+02,2.488727307951933199e+00,-3.214529484195452369e+00,9.408499717712402344e+00,-8.414105772972106934e-01,7.649187743663787842e-02,3.120000000000000000e+02
-1.683895015266991493e+02,-3.707596156505186968e+01,1.251259936154534103e+01,8.104994326625663348e+01,-7.646889393766852550e+01,-1.238633970035524499e+02,3.762798929587120256e+00,-1.731285617809447785e+00,9.408499717712402344e+00,-8.414105772972106934e-01,7.649187743663787842e-02,3.130000000000000000e+02
-1.670841224550883908e+02,-3.686497074451440881e+01,1.320112496313669226e+01,7.930635800732989082e+01,-7.365177520422409430e+01,-1.211247040357250455e+02,3.825260692249116801e+00,6.762399806047483253e-01,9.408499717712402344e+00,-8.414105772972106934e-01,7.649187743663787842e-02,3.140000000000000000e+02
-1.652679497089151539e+02,-3.725928667567048080e+01,1.280468082422578391e+01,7.722669064578235520e+01,-7.099805272649615517e+01,-1.186629857474051732e+02,3.247599888517925137e+00,3.335376889053293326e+00,9.408499717712402344e+00,-8.414105772972106934e-01,7.649187743663787842e-02,3.150000000000000000e+02
-1.630915568584279640e+02,-3.777643221452940736e+01,1.148370734433538587e+01,7.497283693248365921e+01,-6.954548579301797417e+01,-1.170496770895157681e+02,2.952255087340461159e+00,4.879398355857148317e+00,9.408499717712402344e+00,-8.414105772972106934e-01,7.649187743663787842e-02,3.160000000000000000e+02
-1.609911436948628989e+02,-3.834800588662169218e+01,9.859034974034699417e+00,7.249467735299154469e+01,-6.999505049613179608e+01,-1.167238954122764198e+02,3.475927251509006055e+00,4.107278123045205120e+00,9.408499717712402344e+00,-8.414105772972106934e-01,7.649187743663787842e-02,3.170000000000000000e+02
-1.594463113334589082e+02,-3.910666374485698782e+01,8.438216389599489275e+00,6.950706512476452303e+01,-7.237217727851276550e+01,-1.177954184318454622e+02,4.623832045536801161e+00,8.516927017991235971e-01,9.408499717712402344e+00,-8.414105772972106934e-01,7.649187743663787842e-02,3.180000000000000000e+02
-1.588082027368717775e+02,-3.999874471708739065e+01,7.146192510699108880e+00,6.570001852099464656e+01,-7.605004270830903579e+01,-1.199237276534718433e+02,5.738499217682544895e+00,-3.819775687592652957e+00,9.408499717712402344e+00,-8.414105772972106934e-01,7.649187743663787842e-02,3.190000000000000000e+02
-1.592609862589584111e+02,-4.075891198050149455e+01,5.389954106586287708e+00,6.100473605170816427e+01,-8.010693532580813780e+01,-1.224156883995647149e+02,6.248280608051061336e+00,-8.283117790764549682e+00,9.408499717712402344e+00,-8.414105772972106934e-01,7.649187743663787842e-02,3.200000000000000000e+02
-1.608628062902412807e+02,-4.127711368277633142e+01,2.598637387712187774e+00,5.569840223337307350e+01,-8.376391926360605567e+01,-1.245861968956811552e+02,5.998650781211779304e+00,-1.144026351309631195e+01,9.408499717712402344e+00,-8.414105772972106934e-01,7.649187743663787842e-02,3.210000000000000000e+02
-1.635338131115924512e+02,-4.188448416991421652e+01,-1.230753270662745535e+00,5.025980340530304602e+01,-8.661323834744075612e+01,-1.261667087296189038e+02,5.177717401964343935e+00,-1.335312697139113425e+01,9.408499717712402344e+00,-8.414105772972106934e-01,7.649187743663787842e-02,3.220000000000000000e+02
-1.669130476736172284e+02,-4.316240079805467644e+01,-5.422733950904898848e+00,4.510456394299787064e+01,-8.857012765922775088e+01,-1.274068130204704516e+02,4.010403393365436386e+00,-1.489917358071755871e+01,9.408499717712402344e+00,-8.414105772972106934e-01,7.649187743663787842e-02,3.230000000000000000e+02
-1.702065387980480011e+02,-4.542719704156144189e+01,-8.990570518623911767e+00,4.043305848120932922e+01,-8.970420229317295480e+01,-1.287153501601569587e+02,2.536924182625739377e+00,-1.676194330872107230e+01,9.408499717712402344e+00,-8.414105772972106934e-01,7.649187743663787842e-02,3.240000000000000000e+02
-1.722930059889165193e+02,-4.840562270360942421e+01,-1.114821462390244733e+01,3.631864216320533956e+01,-9.012380853074211018e+01,-1.301199156863316375e+02,6.372319072612526725e-01,-1.869350007797686430e+01,9.408499717712402344e+00,-8.414105772972106934e-01,7.649187743663787842e-02,3.250000000000000000e+02
-1.722224026703121353e+02,-5.139475991562150625e+01,-1.161971697476366217e+01,3.292781086322091966e+01,-8.994325211690539845e+01,-1.310646909434922236e+02,-1.757024788707838070e+00,-1.974727115512536102e+01,9.408499717712402344e+00,-8.414105772972106934e-01,7.649187743663787842e-02,3.260000000000000000e+02
-1.698503352440780532e+02,-5.367544574181482631e+01,-1.064298936728692979e+01,3.061775808373489838e+01,-8.926595484942785674e+01,-1.308010662436482789e+02,-4.441587629715115781e+00,-1.923468682776083938e+01,9.408499717712402344e+00,-8.414105772972106934e-01,7.649187743663787842e-02,3.270000000000000000e+02
-1.660514483644659265e+02,-5.471853434734977384e+01,-8.787330879064512601e+00,2.976490605762258923e+01,-8.818229236147664096e+01,-1.290554802533015959e+02,-6.902200484345826226e+00,-1.742908669699863822e+01,9.408499717712402344e+00,-8.414105772972106934e-01,7.649187743663787842e-02,3.280000000000000000e+02
-1.621620177139269572e+02,-5.405159369374308653e+01,-6.737184075522435478e+00,3.044645411424615133e+01,-8.682394305815068947e+01,-1.263346124335578224e+02,-8.516003985167742485e+00,-1.531326475461847281e+01,9.408499717712402344e+00,-8.414105772972106934e-01,7.649187743663787842e-02,3.290000000000000000e+02
-1.589976616553663007e+02,-5.115019755998389428e+01,-5.106179152301109525e+00,3.226038060871401569e+01,-8.544337994232387246e+01,-1.235227882261998502e+02,-8.866812887679316191e+00,-1.364731872822056857e+01,9.408499717712402344e+00,-8.414105772972106934e-01,7.649187743663787842e-02,3.300000000000000000e+02
-1.562851737221260464e+02,-4.574781016913894405e+01,-4.281760360335681526e+00,3.446801253768302331e+01,-8.438430514055141884e+01,-1.211006327161779836e+02,-7.944523153000943694e+00,-1.233691137169347485e+01,9.408499717712402344e+00,-8.414105772972106934e-01,7.649187743663787842e-02,3.310000000000000000e+02
-1.530673008815141998e+02,-3.841157551446725904e+01,-4.326736435216190557e+00,3.636728584826872179e+01,-8.388933832684676872e+01,-1.187330503067230438e+02,-6.094076266299623512e+00,-1.075478114848934297e+01,9.408499717712402344e+00,-8.414105772972106934e-01,7.649187743663787842e-02,3.320000000000000000e+02
-1.487345163049619714e+02,-3.072294797364756391e+01,-4.992396419205476832e+00,3.762170894822297385e+01,-8.391677969193494846e+01,-1.156587301512537351e+02,-3.809836403255985715e+00,-8.618250149541836436e+00,9.408499717712402344e+00,-8.414105772972106934e-01,7.649187743663787842e-02,3.330000000000000000e+02
-1.436877904954579037e+02,-2.458459222064109895e+01,-5.845701376212645073e+00,3.831090496976875670e+01,-8.418564510096439335e+01,-1.115493377763197032e+02,-1.546267068109898446e+00,-6.457723868499698483e+00,9.408499717712402344e+00,-8.414105772972106934e-01,7.649187743663787842e-02,3.340000000000000000e+02
-1.389808222874191301e+02,-2.101302392176799572e+01,-6.462632043710414109e+00,3.868760539732932102e+01,-8.446081438660951335e+01,-1.070416299534744553e+02,3.641059127905350579e-01,-5.190402852225076913e+00,9.408499717712402344e+00,-8.414105772972106934e-01,7.649187743663787842e-02,3.350000000000000000e+02
-1.353072063722987366e+02,-1.944432960548238043e+01,-6.599144792400636561e+00,3.885321870154416501e+01,-8.478728958588538944e+01,-1.034272412524121023e+02,1.745104940491216894e+00,-5.278130895038373183e+00,9.408499717712402344e+00,-8.414105772972106934e-01,7.649187743663787842e-02,3.360000000000000000e+02
-1.323661389877854333e+02,-1.826949514902688065e+01,-6.277655282505179457e+00,3.859996846409524096e+01,-8.539155493564288690e+01,-1.017545610290769105e+02,2.627056987441278579e+00,-6.357707411810793019e+00,9.408499717712402344e+00,-8.414105772972106934e-01,7.649187743663787842e-02,3.370000000000000000e+02
-1.292577628629283026e+02,-1.621574869989927947e+01,-5.762122178924244054e+00,3.754379998358410830e+01,-8.634541307056042569e+01,-1.021168382664095589e+02,3.229043247883055301e+00,-7.663058579463836395e+00,9.408499717712402344e+00,-8.414105772972106934e-01,7.649187743663787842e-02,3.380000000000000000e+02
-1.255146323830163055e+02,-1.335464118988795690e+01,-5.411113872254219359e+00,3.545307534500170732e+01,-8.735856281012456748e+01,-1.036829975944347098e+02,3.788393113403571988e+00,-8.708048308686386463e+00,9.446745872497558594e+00,-8.414105772972106934e-01,7.649187743663787842e-02,3.390000000000000000e+02
-1.217179349901463468e+02,-1.082724111589121208e+01,-5.450929859481220774e+00,3.251420532427076182e+01,-8.794605632815375884e+01,-1.053463232833880170e+02,4.323924557213672415e+00,-9.513659382122966690e+00,9.446745872497558594e+00,-8.414105772972106934e-01,7.649187743663787842e-02,3.400000000000000000e+02
-1.190570899483201117e+02,-9.580513162116176318e+00,-5.794570663861975390e+00,2.932575502284024083e+01,-8.779448202333901463e+01,-1.063689162126708538e+02,4.588198490999161550e+00,-1.024667313594540019e+01,9.446745872497558594e+00,-8.414105772972106934e-01,7.649187743663787842e-02,3.410000000000000000e+02
-1.182245003687749829e+02,-9.341476456593852618e+00,-6.047279329343240306e+00,2.661798064568802147e+01,-8.692759198972004242e+01,-1.065352821215236077e+02,4.348488735597356936e+00,-1.077799050084513510e+01,9.446745872497558594e+00,-8.414105772972106934e-01,7.649187743663787842e-02,3.420000000000000000e+02
-1.186802486653796507e+02,-8.802815983393401211e+00,-5.734800605205066404e+00,2.491170007535653497e+01,-8.552866865125508866e+01,-1.058705131262980785e+02,3.756554545077278817e+00,-1.065661448308475201e+01,9.446745872497558594e+00,-8.414105772972106934e-01,7.649187743663787842e-02,3.430000000000000000e+02
-1.189936550008449387e+02,-6.807122171427209878e+00,-4.626900977743446219e+00,2.435703988786265484e+01,-8.367730465836149278e+01,-1.043355809841772270e+02,3.409383950049004852e+00,-9.487767355398688096e+00,9.446745872497558594e+00,-8.414105772972106934e-01,7.649187743663787842e-02,3.440000000000000000e+02
-1.179657192953525566e+02,-3.375180375145617973e+00,-2.919694876644570058e+00,2.480558732152897505e+01,-8.133829108147676834e+01,-1.018149288696580470e+02,3.966176651912292073e+00,-7.285043644168410992e+00,9.446745872497558594e+00,-8.414105772972106934e-01,7.649187743663787842e-02,3.450000000000000000e+02
-1.155326516927993055e+02,3.558871087336399341e-01,-1.127290900054049416e+00,2.594537960057303394e+01,-7.860894472977230407e+01,-9.835277309518602351e+01,5.639033634361339864e+00,-4.481048633665778880e+00,9.446745872497558594e+00,-8.414105772972106934e-01,7.649187743663787842e-02,3.460000000000000000e+02
-1.126833167149123369e+02,3.135928382489254318e+00,2.387851297247607363e-01,2.732762459607991445e+01,-7.590031846769841195e+01,-9.436296830033444394e+01,8.017916576043717214e+00,-1.688047165079609613e+00,9.446745872497558594e+00,-8.414105772972106934e-01,7.649187743663787842e-02,3.470000000000000000e+02
-1.105179945634857575e+02,4.560113961167900243e+00,9.475741398655941339e-01,2.832626778013813862e+01,-7.382627303055721768e+01,-9.061009080761306222e+01,1.034215886787819727e+01,5.116044103951367106e-01,9.446745872497558594e+00,-8.414105772972106934e-01,7.649187743663787842e-02,3.480000000000000000e+02
-1.093231164623417726e+02,5.183928387265098081e+00,1.066188713050280512e+00,2.824418126552018293e+01,-7.289160081845147943e+01,-8.794014391327903013e+01,1.193209608828465207e+01,1.637972785216987859e+00,9.446745872497558594e+00,-8.414105772972106934e-01,7.649187743663787842e-02,3.490000000000000000e+02
-1.084360732987743461e+02,5.919148745515684595e+00,7.416722651146301359e-01,2.667275197277884047e+01,-7.326346123656395548e+01,-8.689053497029931350e+01,1.244714986913550092e+01,1.387731985196069218e+00,9.446745872497558594e+00,-8.414105772972106934e-01,7.649187743663787842e-02,3.500000000000000000e+02
-1.069122263380857873e+02,7.445896019887783268e+00,5.846340670814242912e-03,2.388968067386093708e+01,-7.475189746801038382e+01,-8.736592522441901565e+01,1.191945865170259822e+01,-1.807983019889434217e-01,9.446745872497558594e+00,-8.414105772972106934e-01,7.649187743663787842e-02,3.510000000000000000e+02
-1.042921474133329696e+02,1.011430008882965126e+01,-1.145723944923702220e+00,2.088437188748694950e+01,-7.687365109038029232e+01,-8.857997520885515996e+01,1.073211118045287549e+01,-2.484201484570576213e+00,9.446745872497558594e+00,-8.414105772972106934e-01,7.649187743663787842e-02,3.520000000000000000e+02
-1.007785901424621784e+02,1.411510665983897184e+01,-2.437018020326831902e+00,1.882489731586404957e+01,-7.890526134976352068e+01,-8.941185159631999113e+01,9.559759482227264016e+00,-4.542300927303131175e+00,9.446745872497558594e+00,-8.414105772972106934e-01,7.649187743663787842e-02,3.530000000000000000e+02
-9.684435864686906825e+01,1.942125839373537133e+01,-3.136883818943601909e+00,1.828156256683732295e+01,-8.002330130258326335e+01,-8.906465144886976759e+01,9.132600288958201418e+00,-5.488754562055362385e+00,9.446745872497558594e+00,-8.414105772972106934e-01,7.649187743663787842e-02,3.540000000000000000e+02
-9.285525731082972811e+01,2.545202020487130312e+01,-2.394961025352131401e+00,1.883391810528260635e+01,-7.967063284473886142e+01,-8.759831907814117358e+01,9.799477666748998672e+00,-5.159286874089218600e+00,9.446745872497558594e+00,-8.414105772972106934e-01,7.649187743663787842e-02,3.550000000000000000e+02
-8.915719806309377304e+01,3.097762102179711974e+01,1.996521899036451941e-02,1.942521370004590153e+01,-7.799695010868350664e+01,-8.586089431841270425e+01,1.120841517039718838e+01,-4.259139976234450842e+00,9.446745872497558594e+00,-8.414105772972106934e-01,7.649187743663787842e-02,3.560000000000000000e+02
-8.641912862136823037e+01,3.469053945153298457e+01,3.207375926420581891e+00,1.919617361575274117e+01,-7.592605774632835391e+01,-8.477125215085038690e+01,1.250406182038386760e+01,-3.853266712648292014e+00,9.446745872497558594e+00,-8.414105772972106934e-01,7.649187743663787842e-02,3.570000000000000000e+02
-8.559453172982281899e+01,3.612687947902010421e+01,5.482131729877153248e+00,1.808369383067466174e+01,-7.459652506072131928e+01,-8.450660203354129862e+01,1.298491339121903820e+01,-4.488083585873425818e+00,9.446745872497558594e+00,-8.414105772972106934e-01,7.649187743663787842e-02,3.580000000000000000e+02
-8.726530905566343677e+01,3.606456340334487720e+01,5.528490711024346638e+00,1.667605186323416433e+01,-7.449021019300045054e+01,-8.431705034845174396e+01,1.265176743096844802e+01,-5.674654027709152615e+00,9.446745872497558594e+00,-8.414105772972106934e-01,7.649187743663787842e-02,3.590000000000000000e+02
-9.095683425672027056e+01,3.589837788319135825e+01,3.468068343101151640e+00,1.548506037451097939e+01,-7.500310987727436896e+01,-8.319205728572558201e+01,1.209159013875614619e+01,-6.261511370126754628e+00,9.446745872497558594e+00,-8.414105772972106934e-01,7.649187743663787842e-02,3.600000000000000000e+02
-9.525675312665185857e+01,3.650096401975491744e+01,8.337190236517244557e-01,1.434645870198232842e+01,-7.495714327628729734e+01,-8.082068236678583162e+01,1.178026490186971387e+01,-5.494310386158645088e+00,9.446745872497558594e+00,-8.414105772972106934e-01,7.649187743663787842e-02,3.610000000000000000e+02
-9.884666397165597118e+01,3.768452270802373505e+01,-6.877299833345205116e-01,1.253945945059285805e+01,-7.373948431250664726e+01,-7.797299779323748226e+01,1.150570931559423116e+01,-3.876097159783569168e+00,9.446745872497558594e+00,-8.414105772972106934e-01,7.649187743663787842e-02,3.620000000000000000e+02
-1.015280712243292953e+02,3.881065362098547666e+01,-6.953141480772728755e-01,9.537977571960809087e+00,-7.208828471313120190e+01,-7.593452510372424058e+01,1.052028710046010929e+01,-2.957484896202970504e+00,9.446745872497558594e+00,-8.414105772972106934e-01,7.649187743663787842e-02,3.630000000000000000e+02
-1.041754916353651481e+02,3.985809126159037419e+01,-3.504236561894913393e-01,5.713891940403073022e+00,-7.170369071536913452e+01,-7.547139263190365455e+01,8.324468286079536483e+00,-4.081963378761201966e+00,9.446745872497558594e+00,-8.414105772972106934e-01,7.649187743663787842e-02,3.640000000000000000e+02
-1.075488739514556187e+02,4.168687845969515138e+01,-1.152786329618152195e+00,2.311781740391609219e+00,-7.382979241059950937e+01,-7.622168856328835318e+01,5.334670281186163265e+00,-7.104926433516311590e+00,9.446745872497558594e+00,-8.414105772972106934e-01,7.649187743663787842e-02,3.650000000000000000e+02
-1.110961005383468034e+02,4.505201285873965844e+01,-3.315740453976047775e+00,6.435489653296002643e-01,-7.793846949859619144e+01,-7.700632250338344420e+01,2.762966938599902278e+00,-1.026728358784333750e+01,9.446745872497558594e+00,-8.414105772972106934e-01,7.649187743663787842e-02,3.660000000000000000e+02
-1.130025263644136544e+02,4.934540149189263047e+01,-5.318089707780131903e+00,1.148916583322574070e+00,-8.173071527703308448e+01,-7.674856096437088127e+01,1.771689025285922980e+00,-1.146813952862623864e+01,9.446745872497558594e+00,-8.414105772972106934e-01,7.649187743663787842e-02,3.670000000000000000e+02
-1.115755564529578123e+02,5.255284940947490213e+01,-5.166032361939528528e+00,3.099422594264439113e+00,-8.266849542754584945e+01,-7.521864594250746450e+01,2.603934546561617935e+00,-9.921700232176135614e+00,9.446745872497558594e+00,-8.414105772972106934e-01,7.649187743663787842e-02,3.680000000000000000e+02
-1.067391424727739775e+02,5.282053951290470195e+01,-2.267649207424881297e+00,5.157966913754506777e+00,-7.991074093530789924e+01,-7.306128911871496712e+01,4.410764512605965137e+00,-6.809032941350096735e+00,9.446745872497558594e+00,-8.414105772972106934e-01,7.649187743663787842e-02,3.690000000000000000e+02
-1.002748610533852229e+02,5.030234901466735664e+01,1.822135557981710008e+00,6.290940489628155774e+00,-7.507058837503871018e+01,-7.121305781207058772e+01,5.895598579380816773e+00,-4.394687304597312050e+00,9.484992027282714844e+00,-8.796565532684326172e-01,7.649187743663787842e-02,3.700000000000000000e+02
-9.461707726753161296e+01,4.743285967069530784e+01,4.521846589125345872e+00,6.318163315377034905e+00,-7.109712332789979428e+01,-7.025697037825102598e+01,6.245383138970851178e+00,-4.376538477276199046e+00,9.484992027282714844e+00,-8.796565532684326172e-01,7.649187743663787842e-02,3.710000000000000000e+02
-9.128265888066150069e+01,4.712759314752750583e+01,4.242272666859264518e+00,5.791558465495967312e+00,-7.013243173606451819e+01,-7.017379933778818213e+01,5.635609401926330975e+00,-6.791604984526372846e+00,9.484992027282714844e+00,-8.796565532684326172e-01,7.649187743663787842e-02,3.720000000000000000e+02
-9.019002065359239850e+01,5.040344547234155925e+01,1.538783934016919375e+00,5.476934970079412324e+00,-7.207464521730548768e+01,-7.054207550598198395e+01,4.959970241398991675e+00,-1.019441334376108443e+01,9.484992027282714844e+00,-8.796565532684326172e-01,7.649187743663787842e-02,3.730000000000000000e+02
-9.019587301037000771e+01,5.555418574744822990e+01,-1.542654101607467965e+00,5.907251697763626908e+00,-7.494468420231726213e+01,-7.089906855608353453e+01,5.054465398874754101e+00,-1.277828112123563642e+01,9.484992027282714844e+00,-8.796565532684326172e-01,7.649187743663787842e-02,3.740000000000000000e+02
-9.012509858363469561e+01,5.959495174190965372e+01,-3.220200856970791392e+00,7.183911836423533259e+00,-7.660103001963773295e+01,-7.098728324386570421e+01,6.041027157342455212e+00,-1.351396420724222480e+01,9.484992027282714844e+00,-8.796565532684326172e-01,7.649187743663787842e-02,3.750000000000000000e+02
-8.938747059004845141e+01,6.060666428546812767e+01,-3.236312254249241960e+00,8.897118172025386684e+00,-7.627732245139441147e+01,-7.081134823711363424e+01,7.264604669710251983e+00,-1.259625127180538584e+01,9.484992027282714844e+00,-8.796565532684326172e-01,7.649187743663787842e-02,3.760000000000000000e+02
-8.792988266578586831e+01,5.888946357689422939e+01,-2.645468221425346655e+00,1.010310796682657042e+01,-7.475568884896631516e+01,-7.057992256358534178e+01,7.807431565545016383e+00,-1.112648245388430723e+01,9.484992027282714844e+00,-8.796565532684326172e-01,7.649187743663787842e-02,3.770000000000000000e+02
-8.592484362514542795e+01,5.610580979815296132e+01,-2.572737617550615141e+00,9.552799290832325596e+00,-7.331998555535506057e+01,-7.061716774752801484e+01,7.124576530531385288e+00,-1.038947703415431079e+01,9.484992027282714844e+00,-8.796565532684326172e-01,7.649187743663787842e-02,3.780000000000000000e+02
-8.363686064851123092e+01,5.352710088372862174e+01,-3.233598988467065283e+00,6.356977163157523592e+00,-7.262408147319047202e+01,-7.122145723293874653e+01,5.332930100513294747e+00,-1.116867662869412925e+01,9.484992027282714844e+00,-8.796565532684326172e-01,7.649187743663787842e-02,3.790000000000000000e+02
-8.146810085492322173e+01,5.118255448895951076e+01,-4.049381572917013727e+00,8.200897782838865169e-01,-7.242882210734273940e+01,-7.244538208430992654e+01,3.034870473738692453e+00,-1.339045087244392107e+01,9.484992027282714844e+00,-8.796565532684326172e-01,7.649187743663787842e-02,3.800000000000000000e+02
-7.989423264593708041e+01,4.854767105306328290e+01,-4.533651953792968925e+00,-5.278449905454891677e+00,-7.217177447897267939e+01,-7.391213907878454847e+01,9.208876224913637998e-01,-1.622582462293064509e+01,9.484992027282714844e+00,-8.796565532684326172e-01,7.649187743663787842e-02,3.810000000000000000e+02
-7.918865069361791598e+01,4.574488310272164426e+01,-4.931294511862006402e+00,-9.469942244146437815e+00,-7.160832289125198713e+01,-7.486895983446368064e+01,-5.457272212845509785e-01,-1.857910272741742119e+01,9.484992027282714844e+00,-8.796565532684326172e-01,7.649187743663787842e-02,3.820000000000000000e+02
-7.919070212949014831e+01,4.379470685247602546e+01,-5.960166042752575777e+00,-1.008912210483501326e+01,-7.091073866629744771e+01,-7.455601566594702945e+01,-1.258509389062965056e+00,-1.965882437043705977e+01,9.484992027282714844e+00,-8.796565532684326172e-01,7.649187743663787842e-02,3.830000000000000000e+02
-7.943689506053385685e+01,4.360248819826747990e+01,-7.985147899088474333e+00,-7.369317107809308709e+00,-7.028241130209551102e+01,-7.268993551079483950e+01,-1.437700055273126054e+00,-1.928678209930001231e+01,9.484992027282714844e+00,-8.796565532684326172e-01,7.649187743663787842e-02,3.840000000000000000e+02
-7.959809558827964793e+01,4.477383186128975012e+01,-1.051397104655507064e+01,-3.229274577373331567e+00,-6.960627852947322936e+01,-6.969615691944613900e+01,-1.473793793210461445e+00,-1.780915147814300781e+01,9.484992027282714844e+00,-8.796565532684326172e-01,7.649187743663787842e-02,3.850000000000000000e+02
-7.976278607217398076e+01,4.557997138946504379e+01,-1.251612097126565004e+01,9.622915915986141044e-02,-6.848034220282465867e+01,-6.647257268892019511e+01,-1.665653090454497942e+00,-1.577032740526055932e+01,9.484992027282714844e+00,-8.796565532684326172e-01,7.649187743663787842e-02,3.860000000000000000e+02
-8.020362352058282340e+01,4.423869067916524500e+01,-1.322885959620646190e+01,1.439443458230357464e+00,-6.656261885686524238e+01,-6.385893004221145475e+01,-1.980093584727001144e+00,-1.366952693386480178e+01,9.484992027282714844e+00,-8.796565532684326172e-01,7.649187743663787842e-02,3.870000000000000000e+02
-8.080544079670590918e+01,4.035654440628101725e+01,-1.268351420559605458e+01,1.017912100414093857e+00,-6.391149493854607044e+01,-6.224716977187506473e+01,-2.069175663255464315e+00,-1.193493276872743536e+01,9.484992027282714844e+00,-8.796565532684326172e-01,7.649187743663787842e-02,3.880000000000000000e+02
-8.081264224668473162e+01,3.522318792574756685e+01,-1.154439354804253526e+01,-3.495192695006323902e-01,-6.106154759964408640e+01,-6.160584896426223622e+01,-1.612912334492420996e+00,-1.097730846227756274e+01,9.484992027282714844e+00,-8.796565532684326172e-01,7.649187743663787842e-02,3.890000000000000000e+02
-7.933645746116883402e+01,3.074729223514117393e+01,-1.056583193157740652e+01,-2.210628527720473357e+00,-5.879622555786579596e+01,-6.178251283827432871e+01,-7.007714653796028870e-01,-1.111779362820124106e+01,9.484992027282714844e+00,-8.796565532684326172e-01,7.649187743663787842e-02,3.900000000000000000e+02
-7.628985197760221126e+01,2.802797274533801897e+01,-1.023200100134624790e+01,-4.723598131330277283e+00,-5.773321647338650564e+01,-6.270421186847204353e+01,1.795701533912961168e-01,-1.236381170323573997e+01,9.484992027282714844e+00,-8.796565532684326172e-01,7.649187743663787842e-02,3.910000000000000000e+02
-7.286708836789352972e+01,2.677165666604275884e+01,-1.078951777933627909e+01,-8.135889338992228659e+00,-5.795536394624548393e+01,-6.427728866256677520e+01,6.166384951068266673e-01,-1.426317748971115407e+01,9.484992027282714844e+00,-8.796565532684326172e-01,7.649187743663787842e-02,3.920000000000000000e+02
-7.094011997988519624e+01,2.588208491339844386e+01,-1.238698051764691854e+01,-1.220438048612572857e+01,-5.896425057028409356e+01,-6.616818123617565561e+01,7.390364175728336704e-01,-1.605056843007247380e+01,9.484992027282714844e+00,-8.796565532684326172e-01,7.649187743663787842e-02,3.930000000000000000e+02
-7.169547654795462677e+01,2.451233928161053655e+01,-1.498924427520682912e+01,-1.619800899505361258e+01,-6.004934450136704527e+01,-6.781485710338745321e+01,1.122044686258277579e+00,-1.709443694201041808e+01,9.484992027282714844e+00,-8.796565532684326172e-01,7.649187743663787842e-02,3.940000000000000000e+02
-7.461795359746201939e+01,2.262263032246954708e+01,-1.815024493921123394e+01,-1.941478025373851324e+01,-6.084256801259141412e+01,-6.876276236332603276e+01,2.137043862916243597e+00,-1.737521911269345765e+01,9.484992027282714844e+00,-8.796565532684326172e-01,7.649187743663787842e-02,3.950000000000000000e+02
-7.774633169726212145e+01,2.072360636128360056e+01,-2.105056648327740731e+01,-2.162336367352395428e+01,-6.160320424704161724e+01,-6.902166499982922687e+01,3.384803417306329720e+00,-1.761009861086711226e+01,9.484992027282714844e+00,-8.796565532684326172e-01,7.649187743663787842e-02,3.960000000000000000e+02
-7.908255549221178171e+01,1.929172210609542049e+01,-2.298077421354076932e+01,-2.302055266180485660e+01,-6.294472582828996110e+01,-6.906369325680850579e+01,3.857737715132543599e+00,-1.883113111116017535e+01,9.484992027282714844e+00,-8.796565532684326172e-01,7.649187743663787842e-02,3.970000000000000000e+02
-7.803894297782187550e+01,1.851056429424619409e+01,-2.390362112063286304e+01,-2.386141644978167164e+01,-6.522743692102869772e+01,-6.942591163982717717e+01,2.739991579394882137e+00,-2.160147923808665382e+01,9.484992027282714844e+00,-8.796565532684326172e-01,7.649187743663787842e-02,3.980000000000000000e+02
-7.579516887062970909e+01,1.844954524457341449e+01,-2.452177451624618243e+01,-2.423290592346637595e+01,-6.815899066801432582e+01,-7.028528149953672255e+01,1.006914900788160594e-01,-2.543948062031398649e+01,9.484992027282714844e+00,-8.796565532684326172e-01,7.649187743663787842e-02,3.990000000000000000e+02
-7.437598307835855849e+01,1.925548069444812427e+01,-2.570826930789405651e+01,-2.417385911797316567e+01,-7.095203103900348651e+01,-7.139340608070267535e+01,-3.159829027379146282e+00,-2.897154008355374799e+01,9.484992027282714844e+00,-8.796565532684326172e-01,7.649187743663787842e-02,4.000000000000000000e+02
-7.525200603379454378e+01,2.096575012346218614e+01,-2.778697349455501353e+01,-2.389416355111444545e+01,-7.286812129633619861e+01,-7.237682324432728365e+01,-6.005043298179316480e+00,-3.080917505325140837e+01,9.484992027282714844e+00,-8.796565532684326172e-01,7.649187743663787842e-02,4.010000000000000000e+02
-7.848343748640365902e+01,2.308469252196300658e+01,-3.031510129378420970e+01,-2.375374305361475535e+01,-7.365168747778307079e+01,-7.305694038671686030e+01,-7.908160564194758990e+00,-3.051697595080611336e+01,9.484992027282714844e+00,-8.796565532684326172e-01,7.649187743663787842e-02,4.020000000000000000e+02
-8.284704256900073460e+01,2.448734175946722758e+01,-3.252087042359153202e+01,-2.400274528938052754e+01,-7.354733388010242834e+01,-7.349462663994427203e+01,-8.933755364544595068e+00,-2.886835528054587030e+01,9.484992027282714844e+00,-8.796565532684326172e-01,7.649187743663787842e-02,4.030000000000000000e+02
-8.667037857675620671e+01,2.396504804331286209e+01,-3.391827271678835132e+01,-2.460490451314561255e+01,-7.300439236758938932e+01,-7.379697157118596351e+01,-9.356038500149225001e+00,-2.716820770378183170e+01,9.484992027282714844e+00,-8.796565532684326172e-01,7.649187743663787842e-02,4.040000000000000000e+02
-8.877124764453969874e+01,2.105844709583112717e+01,-3.453417563475670704e+01,-2.539265681344699033e+01,-7.240648482546782816e+01,-7.398538507297121214e+01,-9.312776787109442012e+00,-2.626190579769837541e+01,9.484992027282714844e+00,-8.796565532684326172e-01,7.649187743663787842e-02,4.050000000000000000e+02
-8.902016048931324121e+01,1.645443124283093539e+01,-3.466280915688150799e+01,-2.639092726758434537e+01,-7.200996997900119823e+01,-7.410324254889201256e+01,-8.801654129302960428e+00,-2.612188625889098148e+01,9.484992027282714844e+00,-8.796565532684326172e-01,7.649187743663787842e-02,4.060000000000000000e+02
-8.833218728233725869e+01,1.156973153049221992e+01,-3.455548331304748899e+01,-2.788999370502668285e+01,-7.200107737111329698e+01,-7.439260063053950489e+01,-7.899096517293173747e+00,-2.629931835728621081e+01,9.484992027282714844e+00,-8.796565532684326172e-01,7.649187743663787842e-02,4.070000000000000000e+02
-8.813493004892359295e+01,7.680922986125182206e+00,-3.439990550801053359e+01,-3.006704213436151463e+01,-7.250957589136817205e+01,-7.521808491754768511e+01,-6.921888677373772225e+00,-2.660735525945096924e+01,9.484992027282714844e+00,-8.796565532684326172e-01,7.649187743663787842e-02,4.080000000000000000e+02
-8.958819795541995745e+01,5.328350055457406143e+00,-3.449827715990886645e+01,-3.248148123901978579e+01,-7.352484387328138382e+01,-7.666823513689530500e+01,-6.379191927946067153e+00,-2.723135324181521355e+01,9.484992027282714844e+00,-8.796565532684326172e-01,7.649187743663787842e-02,4.090000000000000000e+02
-9.298021444820739134e+01,4.353241700545140702e+00,-3.527769724974154997e+01,-3.402070729367341073e+01,-7.481208711879889961e+01,-7.818453748203705800e+01,-6.758540040244270131e+00,-2.817011996601627288e+01,9.484992027282714844e+00,-8.796565532684326172e-01,7.649187743663787842e-02,4.100000000000000000e+02
-9.764987245632937629e+01,4.305039056203042946e+00,-3.698551565513469086e+01,-3.353240450801496308e+01,-7.594443198636156467e+01,-7.868581833227131028e+01,-8.259297891604774122e+00,-2.876198262774323666e+01,9.484992027282714844e+00,-8.796565532684326172e-01,7.649187743663787842e-02,4.110000000000000000e+02
-1.024232370341621277e+02,4.727004282590797857e+00,-3.935532712436008751e+01,-3.072478124643362207e+01,-7.649029049531293367e+01,-7.727517547688921695e+01,-1.059635350208418458e+01,-2.805527740455590902e+01,9.484992027282714844e+00,-8.796565532684326172e-01,7.649187743663787842e-02,4.120000000000000000e+02
-1.061591465555878813e+02,5.189009764903914856e+00,-4.163948642354159801e+01,-2.655647393290757918e+01,-7.630260406826300823e+01,-7.404072701916186361e+01,-1.303680256879420085e+01,-2.581859287782538104e+01,9.484992027282714844e+00,-8.796565532684326172e-01,7.649187743663787842e-02,4.130000000000000000e+02
-1.080003843410087256e+02,5.343170239768426200e+00,-4.304669166156827487e+01,-2.269935591345796411e+01,-7.573383596567521181e+01,-7.024952638169588681e+01,-1.475094509492464567e+01,-2.316269207193181501e+01,9.484992027282714844e+00,-8.796565532684326172e-01,7.649187743663787842e-02,4.140000000000000000e+02
-1.073322662094148541e+02,5.192588704747777228e+00,-4.319766979146061203e+01,-2.042242410375212103e+01,-7.555188061124033538e+01,-6.764982554196433284e+01,-1.530837273600150183e+01,-2.196688264404042457e+01,9.484992027282714844e+00,-8.796565532684326172e-01,7.649187743663787842e-02,4.150000000000000000e+02
-1.038291812949051405e+02,5.297349104577619983e+00,-4.221730519265122439e+01,-1.976560183947538007e+01,-7.648065168673895187e+01,-6.734755112914501751e+01,-1.493286873396482406e+01,-2.344034096979862625e+01,9.484992027282714844e+00,-8.796565532684326172e-01,1.147378161549568176e-01,4.160000000000000000e+02
-9.779699245495129389e+01,6.473708645780675397e+00,-4.047031793892847418e+01,-1.966316091085641915e+01,-7.860011275035117251e+01,-6.912686552739023682e+01,-1.423753575324485610e+01,-2.706602817905024949e+01,9.484992027282714844e+00,-8.796565532684326172e-01,1.147378161549568176e-01,4.170000000000000000e+02
-9.048301489885278670e+01,9.032005185343194853e+00,-3.828817933177685973e+01,-1.891147717668894757e+01,-8.110801305435643371e+01,-7.175908747074277017e+01,-1.364881141191585812e+01,-3.089655486682931951e+01,9.484992027282714844e+00,-8.796565532684326172e-01,1.147378161549568176e-01,4.180000000000000000e+02
-8.380806837307466139e+01,1.220997981835284918e+01,-3.595015508990263697e+01,-1.719038986590337004e+01,-8.275924054864378832e+01,-7.400859399600244615e+01,-1.307584131797329974e+01,-3.298887035008681323e+01,9.484992027282714844e+00,-8.796565532684326172e-01,1.147378161549568176e-01,4.190000000000000000e+02
-7.944130122340465050e+01,1.445096303405759386e+01,-3.383435482120830784e+01,-1.532949806166158169e+01,-8.274086032554203030e+01,-7.546006631874149662e+01,-1.217065812843929962e+01,-3.277752042818246991e+01,9.484992027282714844e+00,-8.796565532684326172e-01,1.147378161549568176e-01,4.200000000000000000e+02
-7.785462341445810353e+01,1.444551359742666818e+01,-3.245327222341029483e+01,-1.463764086754457594e+01,-8.128021880989649617e+01,-7.649648066903841936e+01,-1.091942159084624109e+01,-3.128612150196954644e+01,9.484992027282714844e+00,-8.796565532684326172e-01,1.147378161549568176e-01,4.210000000000000000e+02
-7.816950634130898834e+01,1.207669468823849002e+01,-3.223244712791802158e+01,-1.584455987530918719e+01,-7.944681741974432043e+01,-7.756024116559615322e+01,-9.925024653891341586e+00,-3.012274841757596278e+01,9.484992027282714844e+00,-8.796565532684326172e-01,1.147378161549568176e-01,4.220000000000000000e+02
-7.894565221951995682e+01,8.443828111523998814e+00,-3.320141053825682320e+01,-1.847281862916361206e+01,-7.831945609439594591e+01,-7.848520534002523164e+01,-1.004895252382789295e+01,-3.018189802435585989e+01,9.484992027282714844e+00,-8.796565532684326172e-01,1.147378161549568176e-01,4.230000000000000000e+02
-7.921814320594762648e+01,4.994372563511433327e+00,-3.489562479630194503e+01,-2.109553788531690088e+01,-7.824852793175750776e+01,-7.856105845775152829e+01,-1.171468453116699493e+01,-3.110838028204318562e+01,9.484992027282714844e+00,-8.796565532684326172e-01,1.147378161549568176e-01,4.240000000000000000e+02
-7.891211580283419380e+01,2.582768314245413421e+00,-3.659150358164743011e+01,-2.226513440073730976e+01,-7.881033192452991898e+01,-7.724452529886355023e+01,-1.451636642674020550e+01,-3.184627385877809047e+01,9.484992027282714844e+00,-8.796565532684326172e-01,1.147378161549568176e-01,4.250000000000000000e+02
-7.843650864733018579e+01,1.228964641758238940e+00,-3.771081120374810780e+01,-2.144429191542911894e+01,-7.936786521314354559e+01,-7.480592735728691878e+01,-1.746299315112628392e+01,-3.169340832214572856e+01,9.484992027282714844e+00,-8.796565532684326172e-01,1.147378161549568176e-01,4.260000000000000000e+02
-7.806279078915503078e+01,5.646307594014388087e-01,-3.812113828520716652e+01,-1.931309928598307124e+01,-7.964007089341293977e+01,-7.229224807528532892e+01,-1.961052331399469040e+01,-3.095814028798235995e+01,9.484992027282714844e+00,-8.796565532684326172e-01,1.147378161549568176e-01,4.270000000000000000e+02
-7.779118016279227277e+01,3.221491305190511412e-01,-3.817335129965908891e+01,-1.730741326973273431e+01,-7.981669652207904164e+01,-7.085431418240352741e+01,-2.057341182891127573e+01,-3.071049544692573363e+01,9.484992027282714844e+00,-8.796565532684326172e-01,1.147378161549568176e-01,4.280000000000000000e+02
-7.776354814103456192e+01,3.537822826307319701e-01,-3.848565910120453282e+01,-1.676428593252239807e+01,-8.025137505649274772e+01,-7.104248361087911690e+01,-2.060909902181583675e+01,-3.187791227133027405e+01,9.484992027282714844e+00,-8.796565532684326172e-01,1.147378161549568176e-01,4.290000000000000000e+02
-7.859323643455121555e+01,3.334839835319769463e-01,-3.956733612442440062e+01,-1.822512987777477633e+01,-8.110341547069901935e+01,-7.260278269147067931e+01,-2.033738454320723577e+01,-3.442005074084352145e+01,9.484992027282714844e+00,-8.796565532684326172e-01,1.147378161549568176e-01,4.300000000000000000e+02
-8.103444753258804667e+01,-3.051476586790613510e-01,-4.143131545990831910e+01,-2.124861379595827771e+01,-8.219823622956141662e+01,-7.478341910283700145e+01,-2.033946896456654940e+01,-3.721366661784020380e+01,9.484992027282714844e+00,-8.796565532684326172e-01,1.147378161549568176e-01,4.310000000000000000e+02
-8.513506451743489833e+01,-1.945753451547744817e+00,-4.341647247116816288e+01,-2.472256669317982869e+01,-8.310203690684897992e+01,-7.677701891334879747e+01,-2.083985357080155154e+01,-3.873285629697932109e+01,9.484992027282714844e+00,-8.796565532684326172e-01,1.147378161549568176e-01,4.320000000000000000e+02
-8.968273493049650824e+01,-4.252347405515024548e+00,-4.442596323295538241e+01,-2.740198945880231918e+01,-8.330977731589268842e+01,-7.798381098198137806e+01,-2.160434616924612783e+01,-3.802244237712875474e+01,9.484992027282714844e+00,-8.796565532684326172e-01,1.147378161549568176e-01,4.330000000000000000e+02
-9.266253008120071399e+01,-6.135152992088563906e+00,-4.360504738047347928e+01,-2.840468408777539366e+01,-8.251682783645276231e+01,-7.809761955729504734e+01,-2.211824173853551656e+01,-3.533052988791735061e+01,9.484992027282714844e+00,-8.796565532684326172e-01,1.147378161549568176e-01,4.340000000000000000e+02
-9.256730764635767628e+01,-6.401271578029536613e+00,-4.107910078704549051e+01,-2.751367386864043851e+01,-8.091098671406734866e+01,-7.715232779208656666e+01,-2.197570861243775653e+01,-3.202343326599373086e+01,9.484992027282714844e+00,-8.796565532684326172e-01,1.147378161549568176e-01,4.350000000000000000e+02
-8.956481150651961798e+01,-4.613467617266962861e+00,-3.812837212959095723e+01,-2.523725918524672807e+01,-7.926834817951112200e+01,-7.555211648244778644e+01,-2.123012298082880989e+01,-2.986500804300862910e+01,9.484992027282714844e+00,-8.796565532684326172e-01,1.147378161549568176e-01,4.360000000000000000e+02
-8.551459174981062006e+01,-1.464158901814641922e+00,-3.646870507480377910e+01,-2.259969902202522007e+01,-7.861693594382393258e+01,-7.396387701744811238e+01,-2.041951734001258956e+01,-3.008179934286283697e+01,9.484992027282714844e+00,-8.796565532684326172e-01,1.147378161549568176e-01,4.370000000000000000e+02
-8.269464472283539180e+01,1.627239610140151171e+00,-3.703377580815879355e+01,-2.068644046946306503e+01,-7.955542154775173458e+01,-7.301912466668193247e+01,-2.019799896691483809e+01,-3.270370049511450361e+01,9.484992027282714844e+00,-8.796565532684326172e-01,1.147378161549568176e-01,4.380000000000000000e+02
-8.219654937482437163e+01,3.346409860515166201e+00,-3.920758341049975115e+01,-2.012906579473241209e+01,-8.171819553019975046e+01,-7.300006976828012739e+01,-2.083172119106438913e+01,-3.654984420574385240e+01,9.484992027282714844e+00,-8.796565532684326172e-01,1.147378161549568176e-01,4.390000000000000000e+02
-8.328119267233790879e+01,3.118409994708997601e+00,-4.124077301943020757e+01,-2.085098910030436059e+01,-8.390535522587254036e+01,-7.377649956388620467e+01,-2.196195142902524822e+01,-3.991039451189351439e+01,9.484992027282714844e+00,-8.796565532684326172e-01,1.147378161549568176e-01,4.400000000000000000e+02
-8.421027626391224885e+01,1.182117314615169335e+00,-4.161576200885997423e+01,-2.226266316126447009e+01,-8.488025195461727890e+01,-7.503395232534887782e+01,-2.283501348942945697e+01,-4.153745278082510595e+01,9.484992027282714844e+00,-8.796565532684326172e-01,1.147378161549568176e-01,4.410000000000000000e+02
-8.379948894432430961e+01,-1.748216583419008430e+00,-4.023664104018121179e+01,-2.374108563566582575e+01,-8.422001537916526104e+01,-7.653833924589775961e+01,-2.283081919097548962e+01,-4.130773959373595972e+01,9.484992027282714844e+00,-8.796565532684326172e-01,1.147378161549568176e-01,4.420000000000000000e+02
-8.231878035040432451e+01,-4.839924918679855637e+00,-3.839662427648045195e+01,-2.498242577574083612e+01,-8.252939831917910851e+01,-7.816628706057076670e+01,-2.191421638010615425e+01,-4.008413283570592966e+01,9.446745872497558594e+00,-8.414105772972106934e-01,1.529837548732757568e-01,4.430000000000000000e+02
-8.100098886463661074e+01,-7.299912905268968188e+00,-3.753384526439424462e+01,-2.595260496767147629e+01,-8.085580785867978193e+01,-7.970413132225576192e+01,-2.068518698755974583e+01,-3.889489372605169137e+01,9.446745872497558594e+00,-8.414105772972106934e-01,1.529837548732757568e-01,4.440000000000000000e+02
-8.071122826678748652e+01,-8.458927485512248268e+00,-3.790905793232980159e+01,-2.657237183557475646e+01,-7.982842383347031046e+01,-8.070152414072640568e+01,-1.998723931170457035e+01,-3.812381732294903713e+01,9.446745872497558594e+00,-8.414105772972106934e-01,1.529837548732757568e-01,4.450000000000000000e+02
-8.110371039035669583e+01,-7.974088528601214421e+00,-3.842945412309632047e+01,-2.654969918236218973e+01,-7.926254569246384563e+01,-8.064449608010022530e+01,-2.032723248477941524e+01,-3.740361532929682653e+01,9.446745872497558594e+00,-8.414105772972106934e-01,1.529837548732757568e-01,4.460000000000000000e+02
-8.107830494710231051e+01,-6.081768340129343642e+00,-3.776179110410089379e+01,-2.557516204718592689e+01,-7.851194811607149404e+01,-7.936268267672949150e+01,-2.149417069347259712e+01,-3.623487444881800457e+01,9.446745872497558594e+00,-8.414105772972106934e-01,1.529837548732757568e-01,4.470000000000000000e+02
-8.003073192878747477e+01,-3.589689243669482721e+00,-3.564853574764225641e+01,-2.365157133177530113e+01,-7.719348101978232535e+01,-7.727813867265149383e+01,-2.267022855816321680e+01,-3.464223200902887356e+01,9.446745872497558594e+00,-8.414105772972106934e-01,1.529837548732757568e-01,4.480000000000000000e+02
-7.859409184223932243e+01,-1.428346197541884521e+00,-3.315848256363403834e+01,-2.117011658332683055e+01,-7.558886368262540145e+01,-7.519034484049973344e+01,-2.298396363937195019e+01,-3.319043035514016537e+01,9.446745872497558594e+00,-8.414105772972106934e-01,1.529837548732757568e-01,4.490000000000000000e+02
-7.806980247434910325e+01,-2.693749564943459518e-02,-3.165702353648384815e+01,-1.865504390663502932e+01,-7.437071639647706434e+01,-7.372143760805943202e+01,-2.210850725195427913e+01,-3.238127520412336935e+01,9.446745872497558594e+00,-8.414105772972106934e-01,1.529837548732757568e-01,4.500000000000000000e+02
-7.906451685481624736e+01,9.188337140129760883e-01,-3.150905729790201804e+01,-1.648678440414684587e+01,-7.393028975625952626e+01,-7.289887521605237453e+01,-2.043004255414166437e+01,-3.210792133787981584e+01,9.446745872497558594e+00,-8.414105772972106934e-01,1.529837548732757568e-01,4.510000000000000000e+02
-8.069036741308929095e+01,2.009270040886292463e+00,-3.175795576658742903e+01,-1.490184745204518890e+01,-7.396120351765034684e+01,-7.226191116050597429e+01,-1.867282317784270163e+01,-3.177416314169863654e+01,9.446745872497558594e+00,-8.414105772972106934e-01,1.529837548732757568e-01,4.520000000000000000e+02
-8.118482296854244851e+01,3.424969018712317848e+00,-3.104859600574616252e+01,-1.414661823488347636e+01,-7.372203187561672166e+01,-7.139418839992276844e+01,-1.735210233638485988e+01,-3.093134897590215360e+01,9.446745872497558594e+00,-8.414105772972106934e-01,1.529837548732757568e-01,4.530000000000000000e+02
-7.947615776968609680e+01,4.682715228363178994e+00,-2.888261856443261877e+01,-1.439763733555975023e+01,-7.273325767746871406e+01,-7.034942214649686321e+01,-1.654347190615544605e+01,-2.972707828938837338e+01,9.446745872497558594e+00,-8.414105772972106934e-01,1.529837548732757568e-01,4.540000000000000000e+02
-7.627232157812289870e+01,5.184769219152371988e+00,-2.603842883712854928e+01,-1.534419850436535171e+01,-7.122432958369063272e+01,-6.952339539891545428e+01,-1.608905118340362606e+01,-2.867701479449550561e+01,9.446745872497558594e+00,-8.414105772972106934e-01,1.529837548732757568e-01,4.550000000000000000e+02
-7.360841684262686613e+01,5.050284191475128637e+00,-2.381651845449931670e+01,-1.589583063114386619e+01,-6.985890453909155440e+01,-6.907638768459457879e+01,-1.588210554756187776e+01,-2.799462481215448406e+01,9.446745872497558594e+00,-8.414105772972106934e-01,1.529837548732757568e-01,4.560000000000000000e+02
-7.317385850952052806e+01,5.346752924905388227e+00,-2.286381260647607405e+01,-1.459586675796469990e+01,-6.898349606714612037e+01,-6.850669671424623175e+01,-1.583840079244760091e+01,-2.720880659590449113e+01,9.446745872497558594e+00,-8.414105772972106934e-01,1.529837548732757568e-01,4.570000000000000000e+02
-7.485093675946100689e+01,7.364969294414095202e+00,-2.263743890828465055e+01,-1.066958410286335379e+01,-6.816712626858100066e+01,-6.689703396986226380e+01,-1.563447865997886765e+01,-2.549882454206829152e+01,9.446745872497558594e+00,-8.414105772972106934e-01,1.529837548732757568e-01,4.580000000000000000e+02
-7.675387534774853293e+01,1.152638761454645078e+01,-2.190767216209889057e+01,-4.837979011664600648e+00,-6.653740762111897311e+01,-6.369980441901498125e+01,-1.465361391196518071e+01,-2.245395489165116487e+01,9.446745872497558594e+00,-8.414105772972106934e-01,1.529837548732757568e-01,4.590000000000000000e+02
-7.674442980182612928e+01,1.692798112866944393e+01,-1.977253272236259818e+01,9.799921303699363762e-01,-6.363636569940968002e+01,-5.934106390725241909e+01,-1.238924452187882252e+01,-1.855316973512606182e+01,9.446745872497558594e+00,-8.414105772972106934e-01,1.529837548732757568e-01,4.600000000000000000e+02
-7.410651243909740060e+01,2.195038459314508827e+01,-1.629722230337222300e+01,5.006888685200834743e+00,-5.995937386008449721e+01,-5.502987760946291473e+01,-8.980983010164209190e+00,-1.492094637775142019e+01,9.446745872497558594e+00,-8.414105772972106934e-01,1.529837548732757568e-01,4.610000000000000000e+02
-6.997055939124300039e+01,2.535953396260447334e+01,-1.234376658609215838e+01,6.886462920934974363e+00,-5.661976159211303639e+01,-5.188726897014032602e+01,-5.292106997133600998e+00,-1.255779277787456749e+01,9.446745872497558594e+00,-8.414105772972106934e-01,1.529837548732757568e-01,4.620000000000000000e+02
-6.620652119095512944e+01,2.696246255508006584e+01,-8.873849132229338466e+00,7.774778178463577660e+00,-5.444265412255776937e+01,-5.014964745835982285e+01,-2.345830287436456274e+00,-1.166092869612157301e+01,9.446745872497558594e+00,-8.414105772972106934e-01,1.529837548732757568e-01,4.630000000000000000e+02
-6.387044753977679079e+01,2.738453241830566753e+01,-6.362794938487866148e+00,9.197070864601869289e+00,-5.332712149130225043e+01,-4.912974537599541236e+01,-5.882441586984441528e-01,-1.153745864798349885e+01,9.446745872497558594e+00,-8.414105772972106934e-01,1.529837548732757568e-01,4.640000000000000000e+02
-6.260407508972389223e+01,2.737526166366777147e+01,-4.718645216001220888e+00,1.176262043345097652e+01,-5.242861987471593466e+01,-4.790555535241776397e+01,3.473216628359523384e-01,-1.113236051982750041e+01,9.446745872497558594e+00,-8.414105772972106934e-01,1.529837548732757568e-01,4.650000000000000000e+02
-6.138217186768622469e+01,2.735285225791810149e+01,-3.586671260190144039e+00,1.488747884934716126e+01,-5.091087137907089755e+01,-4.606531074879103471e+01,1.180570515286376576e+00,-9.752882261635477334e+00,9.446745872497558594e+00,-8.414105772972106934e-01,1.529837548732757568e-01,4.660000000000000000e+02
-5.969356612347786495e+01,2.745909331737067305e+01,-2.640889163092879244e+00,1.761593328791603597e+01,-4.852978235662254747e+01,-4.388341725528664483e+01,2.315987496070192719e+00,-7.476332079705969136e+00,9.446745872497558594e+00,-8.414105772972106934e-01,1.529837548732757568e-01,4.670000000000000000e+02
-5.790578549851522894e+01,2.781126199873915539e+01,-1.616563730728955761e+00,1.958125744906948285e+01,-4.560530360713909204e+01,-4.191138306226434906e+01,3.593949496001300759e+00,-4.976813102168705427e+00,9.446745872497558594e+00,-8.414105772972106934e-01,1.529837548732757568e-01,4.680000000000000000e+02
-5.653144063568586830e+01,2.854546285619164792e+01,-2.027995299614531177e-01,2.114919211960068424e+01,-4.257800815189779087e+01,-4.046723540378195594e+01,4.627984137309454127e+00,-2.952213497086916050e+00,9.446745872497558594e+00,-8.414105772972106934e-01,1.529837548732757568e-01,4.690000000000000000e+02
-5.531454230414905737e+01,2.963364501922870886e+01,1.925926902186063217e+00,2.273842979964577182e+01,-3.966848375289032447e+01,-3.946807194769399985e+01,5.322315602581056737e+00,-1.604516908756124849e+00,9.446745872497558594e+00,-8.414105772972106934e-01,1.529837548732757568e-01,4.700000000000000000e+02
-5.323868848476598714e+01,3.078017997461518007e+01,4.862494453397687266e+00,2.417053867136847600e+01,-3.691091627348680504e+01,-3.861061902348046715e+01,6.059922756606397343e+00,-5.629479662670178186e-01,9.446745872497558594e+00,-8.414105772972106934e-01,1.529837548732757568e-01,4.710000000000000000e+02
-4.952214450595806738e+01,3.159089461351187822e+01,8.253851531853314327e+00,2.478544325928504577e+01,-3.438857622691307370e+01,-3.762422240674811746e+01,7.423521873674189919e+00,7.187248735064031280e-01,9.446745872497558594e+00,-8.414105772972106934e-01,1.529837548732757568e-01,4.720000000000000000e+02
-4.455565816940602986e+01,3.185146914021588316e+01,1.143075331389303528e+01,2.417353169371631338e+01,-3.234577395193468874e+01,-3.642571857541810232e+01,9.723371606561954650e+00,2.454953790047341045e+00,9.446745872497558594e+00,-8.414105772972106934e-01,1.529837548732757568e-01,4.730000000000000000e+02
-3.976411904998818159e+01,3.162875374530537442e+01,1.386938616110850830e+01,2.271229436193249285e+01,-3.104266853146202720e+01,-3.519362972830396075e+01,1.274123623619652790e+01,4.325945765760536688e+00,9.523238182067871094e+00,-9.179025292396545410e-01,1.147378161549568176e-01,4.740000000000000000e+02
-3.650660434560305134e+01,3.114728929969930959e+01,1.559606008499486052e+01,2.134608804773841939e+01,-3.051153527079873129e+01,-3.439189824037822518e+01,1.585610527941742021e+01,5.710785356642702482e+00,9.523238182067871094e+00,-9.179025292396545410e-01,1.147378161549568176e-01,4.750000000000000000e+02
-3.513014096133710495e+01,3.067686577850173535e+01,1.711744633707377261e+01,2.086965437395456036e+01,-3.045702183669095575e+01,-3.462356400224484787e+01,1.841115513996703612e+01,6.140441455766989520e+00,9.523238182067871094e+00,-9.179025292396545410e-01,1.147378161549568176e-01,4.760000000000000000e+02
-3.507029517392160756e+01,3.059600627187229804e+01,1.889490742137954271e+01,2.147086172568064910e+01,-3.038763072815422106e+01,-3.620869065989154478e+01,2.005609366431463059e+01,5.634164845816172829e+00,9.523238182067871094e+00,-9.179025292396545410e-01,1.147378161549568176e-01,4.770000000000000000e+02
-3.572340602921043740e+01,3.144894640345027881e+01,2.085277095664045532e+01,2.292357822805904277e+01,-2.988582000962131247e+01,-3.870915586229747873e+01,2.084957924781139127e+01,4.725097064051794860e+00,9.523238182067871094e+00,-9.179025292396545410e-01,1.147378161549568176e-01,4.780000000000000000e+02
-3.705693723525564565e+01,3.368675751301324084e+01,2.240609394844361191e+01,2.507899245364852447e+01,-2.882779576159057910e+01,-4.086765358008651106e+01,2.110554333532149940e+01,4.193950494111447824e+00,9.523238182067871094e+00,-9.179025292396545410e-01,1.147378161549568176e-01,4.790000000000000000e+02
-3.933489080937874860e+01,3.711765160229386851e+01,2.299506212284555318e+01,2.801460260344917685e+01,-2.740918801804133409e+01,-4.122392537693275472e+01,2.112595832327707512e+01,4.672758378127255696e+00,9.523238182067871094e+00,-9.179025292396545410e-01,1.147378161549568176e-01,4.800000000000000000e+02
-4.237929525417225562e+01,4.058808165763412035e+01,2.262203959831441580e+01,3.167375107999603046e+01,-2.596345833800513958e+01,-3.907165121775284433e+01,2.102728352961145220e+01,6.328271188865144836e+00,9.523238182067871094e+00,-9.179025292396545410e-01,1.147378161549568176e-01,4.810000000000000000e+02
-4.528697919195212762e+01,4.242956717643284748e+01,2.189142915734610995e+01,3.547685873021002578e+01,-2.471863678126629793e+01,-3.500607765776584301e+01,2.076826581963243257e+01,8.787019068077967177e+00,9.523238182067871094e+00,-9.179025292396545410e-01,1.147378161549568176e-01,4.820000000000000000e+02
-4.695466929686288893e+01,4.156731403072906517e+01,2.154732118923125483e+01,3.847762094265085864e+01,-2.369153425683182945e+01,-3.056651591622318165e+01,2.030232793561614812e+01,1.136076803463132023e+01,9.523238182067871094e+00,-9.179025292396545410e-01,1.147378161549568176e-01,4.830000000000000000e+02
-4.685748447742381728e+01,3.844628119196445226e+01,2.196127540554233804e+01,4.004458869897688089e+01,-2.277032430504348781e+01,-2.721311346781871521e+01,1.971007733891715930e+01,1.343696208504807288e+01,9.523238182067871094e+00,-9.179025292396545410e-01,1.147378161549568176e-01,4.840000000000000000e+02
-4.528781877138270318e+01,3.486073359296486274e+01,2.301043783551224919e+01,4.040166335089162430e+01,-2.184912800730288041e+01,-2.544878675503309040e+01,1.920466723659686181e+01,1.476127628735398645e+01,9.523238182067871094e+00,-9.179025292396545410e-01,1.147378161549568176e-01,4.850000000000000000e+02
-4.290383917512932754e+01,3.263041255344375458e+01,2.435201337907852093e+01,4.042359310518293825e+01,-2.083475123741484936e+01,-2.475607194946257295e+01,1.902442747853199023e+01,1.542770440367510076e+01,9.523238182067871094e+00,-9.179025292396545410e-01,1.147378161549568176e-01,4.860000000000000000e+02
-4.016616273609544407e+01,3.213943521154203609e+01,2.574156784262630993e+01,4.083077045649406500e+01,-1.952479001878228360e+01,-2.428081442066965678e+01,1.930099179628587081e+01,1.566851707019647932e+01,9.523238182067871094e+00,-9.179025292396545410e-01,1.147378161549568176e-01,4.870000000000000000e+02
-3.723667331881230069e+01,3.202336000080450873e+01,2.710533276587756291e+01,4.157547939884902632e+01,-1.757963097994847601e+01,-2.358350571544127661e+01,1.997633929660719332e+01,1.572085481447994226e+01,9.523238182067871094e+00,-9.179025292396545410e-01,1.147378161549568176e-01,4.880000000000000000e+02
-3.430404895978110602e+01,3.036909214657747924e+01,2.839646210926670733e+01,4.204074065411542449e+01,-1.474717119618156858e+01,-2.282536678588414247e+01,2.082003909622272886e+01,1.587887556290135649e+01,9.523238182067871094e+00,-9.179025292396545410e-01,1.147378161549568176e-01,4.890000000000000000e+02
-3.180088838642174665e+01,2.645109236926448659e+01,2.948758031265425927e+01,4.185057396386717699e+01,-1.118777888828870459e+01,-2.234399232328831886e+01,2.156810876673517896e+01,1.655479350548077377e+01,9.523238182067871094e+00,-9.179025292396545410e-01,1.147378161549568176e-01,4.900000000000000000e+02
-3.015959379579987854e+01,2.147198349633480774e+01,3.022480253060101063e+01,4.144369187905322605e+01,-7.541706505584954812e+00,-2.213017827293131745e+01,2.212510457956540222e+01,1.809806402792952440e+01,9.523238182067871094e+00,-9.179025292396545410e-01,1.147378161549568176e-01,4.910000000000000000e+02
-2.934473337753000521e+01,1.760134520097351185e+01,3.054416694419987266e+01,4.178185861279780511e+01,-4.568943938301458729e+00,-2.174337810049883046e+01,2.266931827263391597e+01,2.043231485368781364e+01,9.523238182067871094e+00,-9.179025292396545410e-01,1.147378161549568176e-01,4.920000000000000000e+02
-2.868667878825742434e+01,1.613275341678692598e+01,3.049219051883645193e+01,4.344816704311675437e+01,-2.656866675321452931e+00,-2.074035884974568944e+01,2.350343722191507823e+01,2.289782573663984522e+01,9.523238182067871094e+00,-9.179025292396545410e-01,1.147378161549568176e-01,4.930000000000000000e+02
-2.725394120228600059e+01,1.640859326584167377e+01,3.013497426972330118e+01,4.603462191358444500e+01,-1.663934875946438297e+00,-1.917857763597118037e+01,2.472577750605773872e+01,2.457149710610735838e+01,9.523238182067871094e+00,-9.179025292396545410e-01,1.147378161549568176e-01,4.940000000000000000e+02
-2.447122269683598006e+01,1.648966366047761767e+01,2.950175938341158144e+01,4.845094630642499567e+01,-1.234976592608120427e+00,-1.769451725681517473e+01,2.602592722141787362e+01,2.486524154875812087e+01,9.484992027282714844e+00,-8.796565532684326172e-01,7.649187743663787842e-02,4.950000000000000000e+02
-2.048561112226985870e+01,1.494147498654990613e+01,2.866224966346157998e+01,4.988072782791056170e+01,-1.223004028511581964e+00,-1.705187455172438149e+01,2.687353166240666269e+01,2.388212716139332770e+01,9.484992027282714844e+00,-8.796565532684326172e-01,7.649187743663787842e-02,4.960000000000000000e+02
-1.605394915234461450e+01,1.210251197195768214e+01,2.784382291929421172e+01,5.048095452619777745e+01,-1.741802180279705681e+00,-1.754098121924056386e+01,2.699756865570066111e+01,2.224574330549512524e+01,9.484992027282714844e+00,-8.796565532684326172e-01,7.649187743663787842e-02,4.970000000000000000e+02
-1.213413364233969105e+01,9.715385082558611884e+00,2.740811896596233055e+01,5.118355587794295047e+01,-2.805020260926198716e+00,-1.873876418030886271e+01,2.668918571175970555e+01,2.066464200073005486e+01,9.484992027282714844e+00,-8.796565532684326172e-01,7.649187743663787842e-02,4.980000000000000000e+02
-9.534747946364262816e+00,9.330223783012058902e+00,2.761292767694914119e+01,5.281911514939039876e+01,-3.983405770764420595e+00,-1.981181776908931624e+01,2.659260589190739665e+01,1.968756246299648183e+01,9.484992027282714844e+00,-8.796565532684326172e-01,7.649187743663787842e-02,4.990000000000000000e+02
-8.773833727582513120e+00,1.098898804745107327e+01,2.832062514615574855e+01,5.540846215485524340e+01,-4.513954866076915096e+00,-2.007783081014895288e+01,2.715041404464489005e+01,1.976833169936463719e+01,9.484992027282714844e+00,-8.796565532684326172e-01,7.649187743663787842e-02,5.000000000000000000e+02
-1.001547562605924213e+01,1.334244816931101241e+01,2.895971698117222104e+01,5.824446733547378585e+01,-3.807626263091492547e+00,-1.935905177327799720e+01,2.825880097271556224e+01,2.133280606160656134e+01,9.484992027282714844e+00,-8.796565532684326172e-01,7.649187743663787842e-02,5.010000000000000000e+02
-1.294040142097060198e+01,1.494809824608870485e+01,2.889321393619235323e+01,6.060851553199708519e+01,-1.873127215124441136e+00,-1.790229689514319489e+01,2.948231329914028720e+01,2.456539454989012938e+01,9.484992027282714844e+00,-8.796565532684326172e-01,7.649187743663787842e-02,5.020000000000000000e+02
-1.663543799612125440e+01,1.540869308767187817e+01,2.799452084033333676e+01,6.240013524988046356e+01,7.415925114466972445e-01,-1.605191519147354029e+01,3.057003346585293002e+01,2.907960108401783828e+01,9.484992027282714844e+00,-8.796565532684326172e-01,7.649187743663787842e-02,5.030000000000000000e+02
-1.979036054191283256e+01,1.531914284938983428e+01,2.694568412096259635e+01,6.410786989288192217e+01,3.418337895704098628e+00,-1.401886214616627058e+01,3.170400161682687212e+01,3.390319029945078455e+01,9.484992027282714844e+00,-8.796565532684326172e-01,7.649187743663787842e-02,5.040000000000000000e+02
-2.130019137808358209e+01,1.528738554004857519e+01,2.688535800032479983e+01,6.622081664803710055e+01,5.898636742349026463e+00,-1.190907256482023513e+01,3.321153830304820076e+01,3.792967940802566318e+01,9.484992027282714844e+00,-8.796565532684326172e-01,7.649187743663787842e-02,5.050000000000000000e+02
-2.092888604583095002e+01,1.518928227212938964e+01,2.854379437476973180e+01,6.868612733896716804e+01,8.301933650567434597e+00,-9.872699408196012882e+00,3.506881173605120239e+01,4.045497959945180355e+01,9.484992027282714844e+00,-8.796565532684326172e-01,7.649187743663787842e-02,5.060000000000000000e+02
-1.944860912770940331e+01,1.447398861435885919e+01,3.150296102685695132e+01,7.091725687419008750e+01,1.076559934964404874e+01,-8.138660116202572681e+00,3.674321856080814541e+01,4.131962836888976653e+01,9.484992027282714844e+00,-8.796565532684326172e-01,7.649187743663787842e-02,5.070000000000000000e+02
-1.798119509377033864e+01,1.312635250577932311e+01,3.426910249734112313e+01,7.230084850702598942e+01,1.306880216686363383e+01,-6.885596917461953126e+00,3.754229464977743191e+01,4.064115291851919665e+01,9.484992027282714844e+00,-8.796565532684326172e-01,7.649187743663787842e-02,5.080000000000000000e+02
-1.703013311803158558e+01,1.210790750469493560e+01,3.523268358140387591e+01,7.269550928425843495e+01,1.460852755202256503e+01,-6.115833222646188005e+00,3.712711845927697141e+01,3.855245969548218454e+01,9.484992027282714844e+00,-8.796565532684326172e-01,7.649187743663787842e-02,5.090000000000000000e+02
-1.608827904502180672e+01,1.262555477196059428e+01,3.381949381156164236e+01,7.247387166008741133e+01,1.477271130153781087e+01,-5.704402175509130757e+00,3.573679783618490546e+01,3.528911958612002309e+01,9.484992027282714844e+00,-8.796565532684326172e-01,7.649187743663787842e-02,5.100000000000000000e+02
-1.424999772478810200e+01,1.485687151166104059e+01,3.089614757409890444e+01,7.213253383506167893e+01,1.341281472224386562e+01,-5.582317099230976964e+00,3.400337164100392329e+01,3.145178190337810520e+01,9.484992027282714844e+00,-8.796565532684326172e-01,7.649187743663787842e-02,5.110000000000000000e+02
-1.127476853633027076e+01,1.744808748647722041e+01,2.808296181653997792e+01,7.186886194244698345e+01,1.102999951708420667e+01,-5.843548061936417071e+00,3.258660529695202968e+01,2.798770902296791974e+01,9.484992027282714844e+00,-8.796565532684326172e-01,7.649187743663787842e-02,5.120000000000000000e+02
-8.015156418021092577e+00,1.842338888637783612e+01,2.658633842543008541e+01,7.151365040785788096e+01,8.510427960341075959e+00,-6.615856638450622995e+00,3.188347406961111119e+01,2.576408863401718463e+01,9.484992027282714844e+00,-8.796565532684326172e-01,7.649187743663787842e-02,5.130000000000000000e+02
-5.704725927433287325e+00,1.675315885312699038e+01,2.653269423420988460e+01,7.082953974205219083e+01,6.625149196103166105e+00,-7.775598327543775667e+00,3.191999504276691368e+01,2.509683284583093155e+01,9.484992027282714844e+00,-8.796565532684326172e-01,7.649187743663787842e-02,5.140000000000000000e+02
-4.779995852607726192e+00,1.314084977695881662e+01,2.725895570672912527e+01,6.983328367463303721e+01,5.714060833040775833e+00,-8.780449741179381817e+00,3.241553516145768299e+01,2.571090344984236253e+01,9.484992027282714844e+00,-8.796565532684326172e-01,7.649187743663787842e-02,5.150000000000000000e+02
-4.438715408910525184e+00,9.323031190888798392e+00,2.812197766312453950e+01,6.881310757964757840e+01,5.792693132043723381e+00,-8.842026976728220689e+00,3.300218496390107248e+01,2.714323520613277196e+01,9.484992027282714844e+00,-8.796565532684326172e-01,7.649187743663787842e-02,5.160000000000000000e+02
-3.423072347351649114e+00,6.601382001255444720e+00,2.899366678180763301e+01,6.803376897931536860e+01,6.889708836237559808e+00,-7.389231234280032368e+00,3.351036663742888777e+01,2.912740352955199796e+01,9.484992027282714844e+00,-8.796565532684326172e-01,7.649187743663787842e-02,5.170000000000000000e+02
-1.232032895853762966e+00,5.023975849216526512e+00,3.006620327602377074e+01,6.742222196503968235e+01,9.151876921525854414e+00,-4.520351641101342466e+00,3.409543888361349673e+01,3.156313350476511914e+01,9.484992027282714844e+00,-8.796565532684326172e-01,7.649187743663787842e-02,5.180000000000000000e+02
1.486033399407574507e+00,3.890382276231150627e+00,3.135442430205853270e+01,6.652592758618362723e+01,1.251796936668893068e+01,-1.096841931242352075e+00,3.504837737785737772e+01,3.415664182349587463e+01,9.484992027282714844e+00,-8.796565532684326172e-01,7.649187743663787842e-02,5.190000000000000000e+02
3.722164960859913663e+00,2.863078585241339624e+00,3.251618596435832842e+01,6.476900070909198348e+01,1.628594839357788260e+01,1.634199154101906970e+00,3.641441672937844487e+01,3.620869670968522769e+01,9.408499717712402344e+00,-8.796565532684326172e-01,3.824593871831893921e-02,5.200000000000000000e+02
5.183104048164523192e+00,2.404888034131658969e+00,3.315981193823540707e+01,6.179456135035434272e+01,1.916559134709382306e+01,2.695102433181091328e+00,3.780780733173696717e+01,3.689660429101058980e+01,9.408499717712402344e+00,-8.796565532684326172e-01,3.824593871831893921e-02,5.210000000000000000e+02
6.483559969812972668e+00,3.097994302831011737e+00,3.322775687931266475e+01,5.767417137595367649e+01,2.001185790770296080e+01,1.922631370381623128e+00,3.867017188933323268e+01,3.587950076984384395e+01,9.408499717712402344e+00,-8.796565532684326172e-01,3.824593871831893921e-02,5.220000000000000000e+02
8.285440762765233558e+00,4.709450689843947657e+00,3.300436379542361465e+01,5.291823288021322469e+01,1.870937335548273950e+01,6.196961728392125224e-02,3.873609371601241946e+01,3.372576996229986435e+01,9.408499717712402344e+00,-8.796565532684326172e-01,3.824593871831893921e-02,5.230000000000000000e+02
1.035734403409583138e+01,6.181572408317720146e+00,3.275923234336869427e+01,4.832829906395340913e+01,1.640668941132821601e+01,-1.634655579211084842e+00,3.821892516819116281e+01,3.175866706316151067e+01,9.408499717712402344e+00,-8.796565532684326172e-01,3.824593871831893921e-02,5.240000000000000000e+02
1.158732184082282402e+01,6.684514184571867190e+00,3.243703793515692269e+01,4.473208940881073659e+01,1.479230466040348801e+01,-2.034965471959822025e+00,3.751593316164689895e+01,3.137401701652947850e+01,9.408499717712402344e+00,-8.796565532684326172e-01,3.824593871831893921e-02,5.250000000000000000e+02
1.095580084676214483e+01,6.622514782334860683e+00,3.171329902803631740e+01,4.263977929791769839e+01,1.493909680867136558e+01,-6.168514506134670228e-01,3.679665447168463288e+01,3.325268956240415719e+01,9.408499717712402344e+00,-8.796565532684326172e-01,3.824593871831893921e-02,5.260000000000000000e+02
8.492461273338449246e+00,7.423305746151982021e+00,3.030942546444839536e+01,4.196062312850688159e+01,1.662552383300590009e+01,2.396794862748720334e+00,3.599048066409341118e+01,3.697269142575510159e+01,9.408499717712402344e+00,-8.796565532684326172e-01,3.824593871831893921e-02,5.270000000000000000e+02
5.335908605430631724e+00,1.020376654198037158e+01,2.824015750024909721e+01,4.200535092791528768e+01,1.861728673707511916e+01,6.231964536438681534e+00,3.519568713387161552e+01,4.127102115965749363e+01,9.408499717712402344e+00,-8.796565532684326172e-01,3.824593871831893921e-02,5.280000000000000000e+02
2.928856928496770706e+00,1.464792719174238300e+01,2.580658733256973392e+01,4.187464409434301160e+01,1.960630595190423264e+01,9.914942083128607919e+00,3.498592277692796415e+01,4.476529903017626566e+01,9.408499717712402344e+00,-8.796565532684326172e-01,3.824593871831893921e-02,5.290000000000000000e+02
2.133564656773046408e+00,1.927463436809091490e+01,2.343685607219231315e+01,4.102279507070602449e+01,1.904512959645262526e+01,1.262098529114791745e+01,3.612439061017812492e+01,4.665845108300891297e+01,9.408499717712402344e+00,-8.796565532684326172e-01,3.824593871831893921e-02,5.300000000000000000e+02
2.924589368944680245e+00,2.283689510672343204e+01,2.153135397038226984e+01,3.956006025936369497e+01,1.731028087625827538e+01,1.393437375241046539e+01,3.884419609383257921e+01,4.697680537421911140e+01,9.408499717712402344e+00,-8.796565532684326172e-01,3.824593871831893921e-02,5.310000000000000000e+02
4.666264389276875590e+00,2.540090315110762731e+01,2.033557524632919922e+01,3.801885122998453426e+01,1.521537195946757492e+01,1.395757890857839811e+01,4.239131012184407155e+01,4.625435709768476045e+01,9.408499717712402344e+00,-8.796565532684326172e-01,3.824593871831893921e-02,5.320000000000000000e+02
6.565433225768174452e+00,2.801571049604353902e+01,1.980143067878725560e+01,3.679490087191834391e+01,1.334321656354359220e+01,1.321122553970963054e+01,4.534191619065495615e+01,4.502192661142976249e+01,9.408499717712402344e+00,-8.796565532684326172e-01,3.824593871831893921e-02,5.330000000000000000e+02
7.989942439715832734e+00,3.139069740115917284e+01,1.951724482813165196e+01,3.578145534381405923e+01,1.173179638952115056e+01,1.236381234245845917e+01,4.650840446080474067e+01,4.357122703327422641e+01,9.408499717712402344e+00,-8.796565532684326172e-01,3.824593871831893921e-02,5.340000000000000000e+02
8.635703927841404948e+00,3.503333712736582584e+01,1.889336496942087251e+01,3.453280806310044682e+01,1.011442235133972645e+01,1.193863099836016772e+01,4.571465368355620740e+01,4.214833051590653668e+01,9.408499717712402344e+00,-8.796565532684326172e-01,3.824593871831893921e-02,5.350000000000000000e+02
8.570695967466008369e+00,3.775043015998903684e+01,1.760703621855827805e+01,3.277554711764616968e+01,8.464663980979366897e+00,1.218058714268590847e+01,4.386643979645305080e+01,4.126411858325900539e+01,9.408499717712402344e+00,-8.796565532684326172e-01,3.824593871831893921e-02,5.360000000000000000e+02
8.085403197098230521e+00,3.891708549831491837e+01,1.595608544147808061e+01,3.074376829431184888e+01,7.325963027599755151e+00,1.312712516666897500e+01,4.234455648928633309e+01,4.166882032175976747e+01,9.408499717712402344e+00,-8.796565532684326172e-01,3.824593871831893921e-02,5.370000000000000000e+02
7.356646324155690309e+00,3.909576504072742864e+01,1.470213777426306478e+01,2.900733468682699367e+01,7.519515703912929894e+00,1.473625557327613933e+01,4.218177630355603469e+01,4.386638547088728046e+01,9.408499717712402344e+00,-8.796565532684326172e-01,3.824593871831893921e-02,5.380000000000000000e+02
6.216731626990849691e+00,3.929935058255409785e+01,1.443323828248185237e+01,2.797954873365983985e+01,9.388287179350754741e+00,1.689949120481014688e+01,4.354444522814537777e+01,4.753390379181792014e+01,9.408499717712402344e+00,-8.796565532684326172e-01,3.824593871831893921e-02,5.390000000000000000e+02
4.374572898474070826e+00,3.968088141507303135e+01,1.501559572783980911e+01,2.757698110034777983e+01,1.224312123508389050e+01,1.932823237477896328e+01,4.574725872534509108e+01,5.140523334505996900e+01,9.408499717712402344e+00,-8.796565532684326172e-01,3.824593871831893921e-02,5.400000000000000000e+02
1.999659930732150315e+00,3.908854879310558772e+01,1.571825883754127062e+01,2.729894317037746987e+01,1.463456083058326840e+01,2.148754516177632468e+01,4.771020299199153669e+01,5.383821412297993447e+01,9.408499717712402344e+00,-8.796565532684326172e-01,3.824593871831893921e-02,5.410000000000000000e+02
8.049970585375376686e-02,3.605317351802352732e+01,1.598067458688274201e+01,2.658010404297169771e+01,1.538705289918789276e+01,2.275102188511618806e+01,4.857001325910914602e+01,5.374266694867674232e+01,9.408499717712402344e+00,-8.796565532684326172e-01,3.824593871831893921e-02,5.420000000000000000e+02
-6.672435691370992572e-03,3.030114850150050643e+01,1.608088178812477054e+01,2.506991855251908419e+01,1.454105005470501055e+01,2.273221417893546459e+01,4.808975645838017954e+01,5.123033641556367002e+01,9.408499717712402344e+00,-8.796565532684326172e-01,3.824593871831893921e-02,5.430000000000000000e+02
2.425715150028736389e+00,2.331240803483524360e+01,1.695080720306305011e+01,2.266943075300832788e+01,1.331351447175984504e+01,2.154316375687085383e+01,4.663770708550237032e+01,4.751650248139003452e+01,9.408499717712402344e+00,-8.796565532684326172e-01,3.824593871831893921e-02,5.440000000000000000e+02
6.556509182177023831e+00,1.735340560865677162e+01,1.919868160796659140e+01,1.948115834855548201e+01,1.303556510089356379e+01,1.976733155176134460e+01,4.479006705052961479e+01,4.417275950238854421e+01,9.408499717712402344e+00,-8.796565532684326172e-01,3.824593871831893921e-02,5.450000000000000000e+02
1.034707793928487263e+01,1.386484611354774188e+01,2.225004705352648671e+01,1.585757322443282646e+01,1.399176715817338845e+01,1.816459709242553799e+01,4.291136479924352898e+01,4.226862109732519457e+01,9.408499717712402344e+00,-8.796565532684326172e-01,3.824593871831893921e-02,5.460000000000000000e+02
1.189379181299636912e+01,1.261897673121325170e+01,2.453127268814569106e+01,1.247739337086386513e+01,1.520859475660836324e+01,1.731825839627617825e+01,4.106966525223378994e+01,4.196558065689578143e+01,9.446745872497558594e+00,-8.796565532684326172e-01,3.824593871831893921e-02,5.470000000000000000e+02
1.081202928731909196e+01,1.227371247033147483e+01,2.468820752025931142e+01,1.020665366254638684e+01,1.535239174028902198e+01,1.743400420689067687e+01,3.929887683183096669e+01,4.276665791626646751e+01,9.446745872497558594e+00,-8.796565532684326172e-01,3.824593871831893921e-02,5.480000000000000000e+02
8.505470936815072491e+00,1.168319239603215465e+01,2.280175501209168942e+01,9.640663339676166288e+00,1.388448914466243878e+01,1.835457139884329081e+01,3.786879608705021383e+01,4.407818534327589077e+01,9.446745872497558594e+00,-8.796565532684326172e-01,3.824593871831893921e-02,5.490000000000000000e+02
7.099963140704858233e+00,1.076220165561881004e+01,2.044396290937720551e+01,1.059852335434993620e+01,1.143334673979734362e+01,1.970627594304642116e+01,3.720701807177829323e+01,4.555756178288675073e+01,9.446745872497558594e+00,-8.796565532684326172e-01,3.824593871831893921e-02,5.500000000000000000e+02
7.919159817852232663e+00,1.026388591825661933e+01,1.942135684113327443e+01,1.202585625479196096e+01,9.149399487896516803e+00,2.105876702080604446e+01,3.751252788644160319e+01,4.700754574647680784e+01,9.446745872497558594e+00,-8.796565532684326172e-01,3.824593871831893921e-02,5.510000000000000000e+02
1.069874112340653483e+01,1.086609514109750307e+01,2.025661822771189691e+01,1.251400062197240004e+01,7.736402458965130791e+00,2.203513263692184410e+01,3.846011568177618756e+01,4.806692783978860462e+01,9.446745872497558594e+00,-8.796565532684326172e-01,3.824593871831893921e-02,5.520000000000000000e+02
1.404601688657362502e+01,1.247972744737376161e+01,2.173389733651129063e+01,1.114073743403764638e+01,7.030143759371640044e+00,2.236670598168984725e+01,3.933688790283486014e+01,4.816963707902323222e+01,9.446745872497558594e+00,-8.796565532684326172e-01,3.824593871831893921e-02,5.530000000000000000e+02
1.661550152383597379e+01,1.433496957493412083e+01,2.191380982730333926e+01,8.031886736408978322e+00,6.386175772425303876e+00,2.192824908177408361e+01,3.954222154173567105e+01,4.691019082013599473e+01,9.446745872497558594e+00,-8.796565532684326172e-01,3.824593871831893921e-02,5.540000000000000000e+02
1.801009004645516143e+01,1.565195980008411425e+01,1.974150885635481245e+01,4.224794831816097940e+00,5.374336225313527393e+00,2.077815511448989128e+01,3.900491563104696979e+01,4.445191003431500576e+01,9.446745872497558594e+00,-8.796565532684326172e-01,3.824593871831893921e-02,5.550000000000000000e+02
1.880870962051017159e+01,1.624454674783419250e+01,1.587068718645150511e+01,9.368772249240464589e-01,4.099666231183618947e+00,1.916827414462386514e+01,3.812936729305965855e+01,4.147450951983137202e+01,9.446745872497558594e+00,-8.796565532684326172e-01,3.824593871831893921e-02,5.560000000000000000e+02
1.989760409606401481e+01,1.656286394576864041e+01,1.206275900008495228e+01,-1.211630199995397561e+00,2.937290546572512540e+00,1.746468315364199952e+01,3.732417922406784783e+01,3.862621599665635586e+01,9.446745872497558594e+00,-8.796565532684326172e-01,3.824593871831893921e-02,5.570000000000000000e+02
2.174338363540800856e+01,1.720839578226718913e+01,9.768820085836068756e+00,-2.452655533618326444e+00,2.028798727527828305e+00,1.598027266454209894e+01,3.655285693241603440e+01,3.602641322170075000e+01,9.446745872497558594e+00,-8.796565532684326172e-01,3.824593871831893921e-02,5.580000000000000000e+02
2.408010142970306333e+01,1.835140719445166724e+01,9.111710840630166786e+00,-3.463373399468991920e+00,1.069693800243840087e+00,1.482450271977904777e+01,3.534450691710480896e+01,3.336325027873590443e+01,9.446745872497558594e+00,-8.796565532684326172e-01,3.824593871831893921e-02,5.590000000000000000e+02
2.607241016103671427e+01,1.950305654744329331e+01,9.027017154092845885e+00,-4.671554629996762742e+00,-3.923602207814838039e-01,1.392171860646067216e+01,3.329829598789001466e+01,3.053887921115028803e+01,9.446745872497558594e+00,-8.796565532684326172e-01,3.824593871831893921e-02,5.600000000000000000e+02
2.674511426900562583e+01,1.979992444408026131e+01,8.273000470159331599e+00,-5.845610609172126715e+00,-2.426843609313436900e+00,1.321792388339417812e+01,3.064249449202361575e+01,2.816949048685091839e+01,9.446745872497558594e+00,-8.796565532684326172e-01,3.824593871831893921e-02,5.610000000000000000e+02
2.545634206261547661e+01,1.859355749759197352e+01,6.371183199719780532e+00,-6.288595549014644348e+00,-4.480592226443150139e+00,1.288545764940045046e+01,2.829185593888541916e+01,2.730868872597829977e+01,9.446745872497558594e+00,-8.796565532684326172e-01,3.824593871831893921e-02,5.620000000000000000e+02
2.226275404976013306e+01,1.592833188082386187e+01,3.780945701963901229e+00,-5.456586473709876373e+00,-5.726471651270003349e+00,1.326565161580492713e+01,2.723906747154069308e+01,2.853080632592218535e+01,9.446745872497558594e+00,-8.796565532684326172e-01,3.824593871831893921e-02,5.630000000000000000e+02
1.800352872235725954e+01,1.254864561329532080e+01,1.381470719149547222e+00,-3.487695264113654048e+00,-5.748348696489301801e+00,1.452061318899177422e+01,2.774522956254259043e+01,3.121355957059631692e+01,9.446745872497558594e+00,-8.796565532684326172e-01,3.824593871831893921e-02,5.640000000000000000e+02
1.398069053064727996e+01,9.404683155172733677e+00,-1.311920705220472883e-01,-1.203029990456798259e+00,-4.943911531058802211e+00,1.631520201205512421e+01,2.906413401728241297e+01,3.378244928059530139e+01,9.446745872497558594e+00,-8.796565532684326172e-01,3.824593871831893921e-02,5.650000000000000000e+02
1.131504692438602433e+01,7.012592217854262344e+00,-4.667900907520561304e-01,4.253133494644316670e-01,-4.208518141843342164e+00,1.790992332644236740e+01,3.002062314062459336e+01,3.480550003689222649e+01,9.446745872497558594e+00,-8.796565532684326172e-01,3.824593871831893921e-02,5.660000000000000000e+02
1.034706058715073596e+01,5.181129338661548900e+00,3.821997453587755444e-01,9.160760140100592253e-01,-4.117225049315493379e+00,1.867798317465712898e+01,2.998237143049300357e+01,3.402120162803339554e+01,9.446745872497558594e+00,-8.796565532684326172e-01,3.824593871831893921e-02,5.670000000000000000e+02
1.051790010806735154e+01,3.335644062517076236e+00,2.258060051179199945e+00,5.318096517469257378e-01,-4.367226082978049817e+00,1.859202002001347864e+01,2.932850915158087446e+01,3.241028210620379468e+01,9.446745872497558594e+00,-8.796565532684326172e-01,3.824593871831893921e-02,5.680000000000000000e+02
1.082528653100416705e+01,1.144237921587091478e+00,4.771328763602468825e+00,-4.061720230333776271e-02,-4.061258065554284258e+00,1.817931867819061154e+01,2.896280809244854026e+01,3.126076737541916373e+01,9.446745872497558594e+00,-8.796565532684326172e-01,3.824593871831893921e-02,5.690000000000000000e+02
1.050171920460252295e+01,-1.137281872507173830e+00,7.241514872619518428e+00,-2.951952994674229558e-01,-2.617887537721799163e+00,1.794390043837665871e+01,2.934305794102692744e+01,3.107889262745084125e+01,9.446745872497558594e+00,-8.796565532684326172e-01,3.824593871831893921e-02,5.700000000000000000e+02
9.410701022924058634e+00,-2.936315088753872260e+00,8.922480200301833975e+00,-2.871740351195057883e-01,-4.227254976167387213e-01,1.783636360516811692e+01,2.999949661581013061e+01,3.130491030344001047e+01,9.446745872497558594e+00,-8.796565532684326172e-01,3.824593871831893921e-02,5.710000000000000000e+02
7.961970507881233061e+00,-3.982325662134599042e+00,9.472136556142686459e+00,-4.777466578163966915e-01,1.458048097858409164e+00,1.734840909946342435e+01,3.002664683280636382e+01,3.103111392428309045e+01,9.446745872497558594e+00,-8.796565532684326172e-01,3.824593871831893921e-02,5.720000000000000000e+02
6.756772420454581152e+00,-4.625509279449943278e+00,9.254871537031249318e+00,-1.190989024903728932e+00,2.250024137272703229e+00,1.617627643638752488e+01,2.901550752753792040e+01,3.000224761062327161e+01,9.446745872497558594e+00,-8.796565532684326172e-01,3.824593871831893921e-02,5.730000000000000000e+02
6.271715505677548208e+00,-5.491856370644427443e+00,9.083875523691858689e+00,-2.187339758487496510e+00,2.167425438420650607e+00,1.477202574912644195e+01,2.745595012544981728e+01,2.891037808586224855e+01,9.446745872497558594e+00,-8.796565532684326172e-01,3.824593871831893921e-02,5.740000000000000000e+02
6.697753996930259746e+00,-6.793842102767939650e+00,9.505279333061480429e+00,-2.770050480366307966e+00,2.114580588331591571e+00,1.413566935862127139e+01,2.620682677717013576e+01,2.866839238826560177e+01,9.446745872497558594e+00,-8.796565532684326172e-01,3.824593871831893921e-02,5.750000000000000000e+02
7.858187040327266004e+00,-8.014605447840267516e+00,1.024259021909438161e+01,-2.359553425428430273e+00,2.667153492689976702e+00,1.493891250628257694e+01,2.561823029923834838e+01,2.935407181119080633e+01,9.446745872497558594e+00,-8.796565532684326172e-01,3.824593871831893921e-02,5.760000000000000000e+02
9.186621445027412847e+00,-8.329479494906536274e+00,1.037863802229458088e+01,-1.031790638163556650e+00,3.332443138237977109e+00,1.678040958779092762e+01,2.521801540678461606e+01,2.988442272403153765e+01,9.446745872497558594e+00,-8.796565532684326172e-01,3.824593871831893921e-02,5.770000000000000000e+02
9.909549498290743941e+00,-7.388630922220045250e+00,9.203224748227512464e+00,4.735807315385045513e-01,2.823211753956456960e+00,1.830882764299713017e+01,2.423030554229444533e+01,2.883432674790947203e+01,9.484992027282714844e+00,-8.414105772972106934e-01,7.649187743663787842e-02,5.780000000000000000e+02
9.485056348545185756e+00,-5.723129418392090884e+00,6.975297574591422745e+00,1.305945184657275604e+00,1.295893326232544496e-01,1.817721017506846692e+01,2.234314021175123344e+01,2.570582161468792037e+01,9.484992027282714844e+00,-8.414105772972106934e-01,7.649187743663787842e-02,5.790000000000000000e+02
8.048854107401893998e+00,-4.401226481194953521e+00,4.842881671980649116e+00,1.137448653238607221e+00,-4.561354700731499179e+00,1.603479470383354055e+01,1.995958857265213737e+01,2.146391418179973698e+01,9.484992027282714844e+00,-8.414105772972106934e-01,7.649187743663787842e-02,5.800000000000000000e+02
6.439050770233734511e+00,-4.265829415928692470e+00,3.920214121635581250e+00,3.339203992336479132e-01,-9.868111987193515233e+00,1.273441659437230555e+01,1.778606785783267696e+01,1.780958204978924186e+01,9.484992027282714844e+00,-8.414105772972106934e-01,7.649187743663787842e-02,5.810000000000000000e+02
5.661442140772123821e+00,-5.426110675272866501e+00,4.354185474074256490e+00,-4.411308490070950938e-01,-1.407107064399042429e+01,9.648689949752224493e+00,1.627606675372226164e+01,1.586192744788786513e+01,9.484992027282714844e+00,-8.414105772972106934e-01,7.649187743663787842e-02,5.820000000000000000e+02
6.164529176295218349e+00,-7.361577525649863674e+00,5.281211736115437816e+00,-7.861594014234469796e-01,-1.609885103013766638e+01,7.727701213421823923e+00,1.545109849341861263e+01,1.548070946403913695e+01,9.484992027282714844e+00,-8.414105772972106934e-01,7.649187743663787842e-02,5.830000000000000000e+02
7.513536241996916942e+00,-9.412868643685214920e+00,5.729906602800838300e+00,-7.883048769190281746e-01,-1.594225465693943988e+01,7.051128245762811275e+00,1.511963271095009986e+01,1.577342616791884211e+01,9.484992027282714844e+00,-8.414105772972106934e-01,7.649187743663787842e-02,5.840000000000000000e+02
8.744969159004085668e+00,-1.119511341986799380e+01,5.602182701059973624e+00,-7.982818256268728874e-01,-1.435620922228736163e+01,7.095939112892665435e+00,1.513167663510103012e+01,1.615623565461010003e+01,9.484992027282714844e+00,-8.414105772972106934e-01,7.649187743663787842e-02,5.850000000000000000e+02
9.080197164437777246e+00,-1.267352843620301428e+01,5.755979851346637588e+00,-1.066453049926167296e+00,-1.223274358876187762e+01,7.320056030210253084e+00,1.542276386803860078e+01,1.684672802475961362e+01,9.484992027282714844e+00,-8.414105772972106934e-01,7.649187743663787842e-02,5.860000000000000000e+02
8.410139692020038638e+00,-1.399518518769355069e+01,7.097784053483337630e+00,-1.603176979568615934e+00,-1.013590424926223932e+01,7.503841991021545255e+00,1.593810565228341147e+01,1.835106143066877848e+01,9.484992027282714844e+00,-8.414105772972106934e-01,7.649187743663787842e-02,5.870000000000000000e+02
7.237921975969129562e+00,-1.527713449663542633e+01,9.590529019900714047e+00,-2.300574821474128839e+00,-8.222807083031511866e+00,7.653929501237143995e+00,1.661502873254357837e+01,2.061892432240802009e+01,9.484992027282714844e+00,-8.414105772972106934e-01,7.649187743663787842e-02,5.880000000000000000e+02
6.233786740555842698e+00,-1.646805116031418947e+01,1.216504539792276773e+01,-3.069568666690429382e+00,-6.426011765066505177e+00,7.722849730444067973e+00,1.742987895570877299e+01,2.283812373867840506e+01,9.484992027282714844e+00,-8.414105772972106934e-01,7.649187743663787842e-02,5.890000000000000000e+02
5.808456681417737855e+00,-1.731725638351599628e+01,1.362614874145037902e+01,-3.811122252171116997e+00,-4.662015875301221968e+00,7.493120543105760589e+00,1.836270002095079690e+01,2.408079330559485243e+01,9.484992027282714844e+00,-8.414105772972106934e-01,7.649187743663787842e-02,5.900000000000000000e+02
5.975577054846326064e+00,-1.746505765568372226e+01,1.365327378699203109e+01,-4.335628353870561114e+00,-2.942096164859322016e+00,6.714815127983456478e+00,1.926223809800831077e+01,2.406870021473059751e+01,9.484992027282714844e+00,-8.414105772972106934e-01,7.649187743663787842e-02,5.910000000000000000e+02
6.487759408293186425e+00,-1.664866180080616687e+01,1.295456241726969893e+01,-4.435489880411296326e+00,-1.393271868035299121e+00,5.314081134511070559e+00,1.979861866139253834e+01,2.325667129886824114e+01,9.484992027282714844e+00,-8.414105772972106934e-01,7.649187743663787842e-02,5.920000000000000000e+02
